»»»»»»»»»»»»»»»»»»»»»»»»»»»»»»»» Hysteresis Filter «««««««««««««««««««««««««««««««««
»»»  Executed Version:	5.30.0
»»»  Vision Version:	5.30.0 (R)
»»»  Vision Compiled:	5/06/21
»»»  Windows Version:	Windows 8, 8.1 or 10
»»»  Processor Information:	x86 (AMD or Intel) - 12 Processors
»»»  Execution Count:	1
»»»»»»»»»»»»»»»»»»»»»»»»»»»»»»»»»»»»»»»»»»««««««««««««««««««««««««««««««««««««««««««

Stored:	12/1/2021 - 12:59:48
Configured:	10/23/21 03:23:53 PM
Executed:	11/30/21 04:35:22 PM

»»»»»»»»»»»»»»»»»»»»»»»»»»»»»»»» Sample Info ««««««««««««««««««««««««««««««««
Sample Name:	Int. Ref. Ferroelectric
Lot Name:	N/A
Wafer Name:	N/A
Die Row/Column:	0/0
Capacitor Number:	0
Sample Area (cm2):	7.85e-05
Sample Thickness (µm):	1.00e-01

»»»»»»»»»»»»»»»»»»»»»»»»»»»»» Hysteresis Filter Info ««««««««««««««««««««««««««««««
Task Name:	Hyst Filter:13609
»»»»»»»»»»»»»»»»»»»»»»»»»»» Hysteresis Filter Plot Info ««««««««««««««««««««««««««««
Plot Enabled
Append Data
Plot Title:	
Plot Subtitle:	
Plot X-Axis label:	Voltage
Plot Y-Axis label:	uC/cm2
Filter Type:	Centering
Number of Associated Tasks:	1
Max. Number of Data Points:	2001


»»»»»»»»»»»»»»»»»»»»»»»»»»»»»»»»»»»»»» Data «««««««««««««««««««««««««««««««««««««««

---> Task: 1	Hyst-41
---> Trace: 1
Point Number	Time (ms)		Voltage	uC/cm2
	1	0.000500	-0.967636	-102.303021
	2	0.001000	-1.000366	-103.123702
	3	0.001500	-0.988617	-103.636628
	4	0.002000	-0.951691	-103.687921
	5	0.002500	-0.940781	-103.277580
	6	0.003000	-0.895462	-103.790506
	7	0.003500	-0.853500	-103.534043
	8	0.004000	-0.800629	-103.277580
	9	0.004500	-0.740204	-103.790506
	10	0.005000	-0.689850	-103.739213
	11	0.005500	-0.632782	-103.431458
	12	0.006000	-0.537109	-103.534043
	13	0.006500	-0.498505	-103.739213
	14	0.007000	-0.404510	-103.277580
	15	0.007500	-0.338211	-102.867240
	16	0.008000	-0.271072	-103.174995
	17	0.008500	-0.180435	-103.585335
	18	0.009000	-0.099869	-103.893091
	19	0.009500	-0.028534	-103.380165
	20	0.010000	0.065460	-103.944383
	21	0.010500	0.145187	-103.277580
	22	0.011000	0.232468	-103.893091
	23	0.011500	0.312195	-103.790506
	24	0.012000	0.404510	-103.482750
	25	0.012500	0.493469	-103.123702
	26	0.013000	0.575714	-103.585335
	27	0.013500	0.662994	-103.739213
	28	0.014000	0.751114	-102.918532
	29	0.014500	0.842590	-102.764654
	30	0.015000	0.932388	-103.585335
	31	0.015500	1.031418	-104.200846
	32	0.016000	1.103592	-103.482750
	33	0.016500	1.205139	-102.610777
	34	0.017000	1.295776	-102.969825
	35	0.017500	1.383896	-103.841798
	36	0.018000	1.469498	-103.687921
	37	0.018500	1.572723	-104.457309
	38	0.019000	1.654968	-103.328873
	39	0.019500	1.745605	-103.277580
	40	0.020000	1.836243	-103.944383
	41	0.020500	1.927719	-104.098261
	42	0.021000	2.024231	-103.072410
	43	0.021500	2.108994	-102.918532
	44	0.022000	2.197952	-103.739213
	45	0.022500	2.300339	-102.354314
	46	0.023000	2.385101	-103.174995
	47	0.023500	2.475739	-102.559484
	48	0.024000	2.565536	-103.944383
	49	0.024500	2.657852	-103.123702
	50	0.025000	2.762756	-102.815947
	51	0.025500	2.835770	-102.764654
	52	0.026000	2.924728	-102.867240
	53	0.026500	3.034668	-104.098261
	54	0.027000	3.118591	-103.021117
	55	0.027500	3.201675	-102.508192
	56	0.028000	3.307419	-103.226288
	57	0.028500	3.398056	-103.277580
	58	0.029000	3.487015	-102.815947
	59	0.029500	3.575974	-102.456899
	60	0.030000	3.664932	-102.662069
	61	0.030500	3.763962	-103.021117
	62	0.031000	3.851242	-102.354314
	63	0.031500	3.940201	-102.200436
	64	0.032000	4.039230	-101.738803
	65	0.032500	4.126511	-102.303021
	66	0.033000	4.214630	-102.918532
	67	0.033500	4.307785	-102.405606
	68	0.034000	4.400940	-102.046559
	69	0.034500	4.489899	-102.097851
	70	0.035000	4.588089	-103.585335
	71	0.035500	4.678726	-102.559484
	72	0.036000	4.787827	-102.918532
	73	0.036500	4.847412	-101.328463
	74	0.037000	4.930496	-102.303021
	75	0.037500	5.094147	-103.277580
	76	0.038000	5.131912	-102.610777
	77	0.038500	5.221710	-102.251729
	78	0.039000	5.338364	-102.405606
	79	0.039500	5.393753	-102.559484
	80	0.040000	5.511246	-102.251729
	81	0.040500	5.601044	-101.738803
	82	0.041000	5.683289	-102.662069
	83	0.041500	5.787354	-102.815947
	84	0.042000	5.869598	-102.303021
	85	0.042500	5.969467	-102.713362
	86	0.043000	6.058426	-102.559484
	87	0.043500	6.144028	-102.559484
	88	0.044000	6.221237	-102.559484
	89	0.044500	6.345444	-102.251729
	90	0.045000	6.410065	-101.943973
	91	0.045500	6.525040	-102.354314
	92	0.046000	6.606445	-102.713362
	93	0.046500	6.689529	-102.149144
	94	0.047000	6.799469	-101.738803
	95	0.047500	6.880875	-102.303021
	96	0.048000	6.972351	-102.815947
	97	0.048500	7.067184	-102.405606
	98	0.049000	7.156982	-102.251729
	99	0.049500	7.246780	-102.200436
	100	0.050000	7.342453	-102.662069
	101	0.050500	7.431412	-102.713362
	102	0.051000	7.526245	-101.892681
	103	0.051500	7.616043	-102.354314
	104	0.052000	7.703323	-102.405606
	105	0.052500	7.797318	-102.610777
	106	0.053000	7.887955	-101.995266
	107	0.053500	7.973557	-101.790096
	108	0.054000	8.084335	-101.738803
	109	0.054500	8.154831	-101.790096
	110	0.055000	8.260574	-101.533633
	111	0.055500	8.353729	-101.020707
	112	0.056000	8.436813	-100.507782
	113	0.056500	8.534164	-101.636218
	114	0.057000	8.629837	-103.174995
	115	0.057500	8.711243	-101.687511
	116	0.058000	8.805237	-101.584925
	117	0.058500	8.892517	-102.303021
	118	0.059000	8.990707	-102.097851
	119	0.059500	9.083023	-101.482340
	120	0.060000	9.175339	-101.379755
	121	0.060500	9.264297	-102.200436
	122	0.061000	9.363327	-101.995266
	123	0.061500	9.452286	-101.225877
	124	0.062000	9.539566	-101.020707
	125	0.062500	9.636078	-101.841388
	126	0.063000	9.723358	-101.174585
	127	0.063500	9.834137	-101.995266
	128	0.064000	9.900436	-101.277170
	129	0.064500	9.998627	-100.251319
	130	0.065000	10.107727	-101.841388
	131	0.065500	10.179062	-102.354314
	132	0.066000	10.279770	-101.225877
	133	0.066500	10.372086	-100.764244
	134	0.067000	10.457687	-101.123292
	135	0.067500	10.555038	-102.149144
	136	0.068000	10.644836	-101.277170
	137	0.068500	10.733795	-101.277170
	138	0.069000	10.831985	-101.431048
	139	0.069500	10.920944	-101.482340
	140	0.070000	11.013260	-100.507782
	141	0.070500	11.103058	-101.584925
	142	0.071000	11.192856	-101.174585
	143	0.071500	11.289368	-101.841388
	144	0.072000	11.375809	-101.533633
	145	0.072500	11.472321	-101.328463
	146	0.073000	11.565475	-100.559074
	147	0.073500	11.653595	-101.841388
	148	0.074000	11.749268	-101.174585
	149	0.074500	11.852493	-101.995266
	150	0.075000	11.926346	-100.405196
	151	0.075500	11.990128	-101.020707
	152	0.076000	12.163849	-101.584925
	153	0.076500	12.207489	-101.995266
	154	0.077000	12.283859	-100.507782
	155	0.077500	12.408066	-100.200026
	156	0.078000	12.463455	-100.866830
	157	0.078500	12.579269	-101.841388
	158	0.079000	12.668228	-101.020707
	159	0.079500	12.747955	-100.507782
	160	0.080000	12.854538	-101.123292
	161	0.080500	12.934265	-100.815537
	162	0.081000	13.030777	-100.661659
	163	0.081500	13.126450	-100.918122
	164	0.082000	13.209534	-100.148734
	165	0.082500	13.302689	-100.456489
	166	0.083000	13.405914	-100.200026
	167	0.083500	13.474731	-100.097441
	168	0.084000	13.588028	-100.507782
	169	0.084500	13.671951	-100.815537
	170	0.085000	13.756714	-100.559074
	171	0.085500	13.859940	-99.789686
	172	0.086000	13.944702	-100.712952
	173	0.086500	14.038696	-100.661659
	174	0.087000	14.129333	-100.969415
	175	0.087500	14.222488	-100.661659
	176	0.088000	14.316483	-100.251319
	177	0.088500	14.402084	-100.405196
	178	0.089000	14.496078	-100.046148
	179	0.089500	14.591751	-100.866830
	180	0.090000	14.684906	-100.456489
	181	0.090500	14.775543	-100.559074
	182	0.091000	14.867020	-100.507782
	183	0.091500	14.957657	-100.456489
	184	0.092000	15.043259	-100.353904
	185	0.092500	15.145645	-100.148734
	186	0.093000	15.227890	-100.353904
	187	0.093500	15.322723	-100.148734
	188	0.094000	15.416718	-100.200026
	189	0.094500	15.498123	-99.943563
	190	0.095000	15.605545	-100.456489
	191	0.095500	15.695343	-100.866830
	192	0.096000	15.783463	-100.405196
	193	0.096500	15.874100	-100.148734
	194	0.097000	15.967255	-101.225877
	195	0.097500	16.061249	-99.379345
	196	0.098000	16.148529	-100.507782
	197	0.098500	16.238327	-100.097441
	198	0.099000	16.328964	-99.840978
	199	0.099500	16.430511	-100.456489
	200	0.100000	16.519470	-100.353904
	201	0.100500	16.611786	-100.200026
	202	0.101000	16.703262	-99.994856
	203	0.101500	16.797256	-100.405196
	204	0.102000	16.904678	-100.097441
	205	0.102500	16.969299	-99.481930
	206	0.103000	17.070847	-99.328053
	207	0.103500	17.166519	-100.200026
	208	0.104000	17.250443	-100.046148
	209	0.104500	17.343597	-100.302611
	210	0.105000	17.439270	-99.635808
	211	0.105500	17.530746	-99.430638
	212	0.106000	17.623062	-100.251319
	213	0.106500	17.712860	-99.481930
	214	0.107000	17.800140	-99.481930
	215	0.107500	17.894974	-99.687101
	216	0.108000	17.990646	-99.892271
	217	0.108500	18.078766	-99.635808
	218	0.109000	18.172760	-99.533223
	219	0.109500	18.259201	-99.276760
	220	0.110000	18.348160	-99.379345
	221	0.110500	18.442993	-99.533223
	222	0.111000	18.533630	-98.969005
	223	0.111500	18.639374	-99.789686
	224	0.112000	18.714905	-99.328053
	225	0.112500	18.816452	-99.533223
	226	0.113000	18.943176	-100.046148
	227	0.113500	18.960800	-97.532813
	228	0.114000	19.088364	-98.661249
	229	0.114500	19.221802	-99.943563
	230	0.115000	19.257050	-99.276760
	231	0.115500	19.376221	-98.866419
	232	0.116000	19.471054	-99.276760
	233	0.116500	19.533157	-99.635808
	234	0.117000	19.650650	-98.712542
	235	0.117500	19.731216	-98.866419
	236	0.118000	19.821854	-99.635808
	237	0.118500	19.921722	-98.969005
	238	0.119000	20.007324	-98.866419
	239	0.119500	20.103836	-99.174175
	240	0.120000	20.193634	-98.353494
	241	0.120500	20.283432	-98.661249
	242	0.121000	20.382462	-99.379345
	243	0.121500	20.464706	-98.353494
	244	0.122000	20.547791	-98.969005
	245	0.122500	20.661087	-99.738393
	246	0.123000	20.742493	-98.609957
	247	0.123500	20.825577	-98.609957
	248	0.124000	20.934677	-98.507372
	249	0.124500	21.012726	-99.276760
	250	0.125000	21.103363	-98.609957
	251	0.125500	21.204071	-98.199616
	252	0.126000	21.287155	-98.507372
	253	0.126500	21.387024	-99.071590
	254	0.127000	21.473465	-98.815127
	255	0.127500	21.567459	-97.789276
	256	0.128000	21.667328	-98.199616
	257	0.128500	21.750412	-98.815127
	258	0.129000	21.841888	-97.225057
	259	0.129500	21.935883	-98.969005
	260	0.130000	22.024002	-97.789276
	261	0.130500	22.120514	-98.302201
	262	0.131000	22.211990	-98.815127
	263	0.131500	22.295914	-98.045738
	264	0.132000	22.406693	-97.789276
	265	0.132500	22.489777	-97.840568
	266	0.133000	22.567825	-98.097031
	267	0.133500	22.677765	-99.481930
	268	0.134000	22.765045	-98.353494
	269	0.134500	22.850647	-97.481520
	270	0.135000	22.940445	-97.584105
	271	0.135500	23.032761	-98.097031
	272	0.136000	23.127594	-97.378935
	273	0.136500	23.214874	-97.994446
	274	0.137000	23.309708	-97.840568
	275	0.137500	23.403702	-98.507372
	276	0.138000	23.496857	-97.173765
	277	0.138500	23.586655	-97.173765
	278	0.139000	23.675613	-98.507372
	279	0.139500	23.766251	-97.789276
	280	0.140000	23.855209	-97.686690
	281	0.140500	23.971024	-97.891861
	282	0.141000	24.033127	-97.225057
	283	0.141500	24.140549	-97.532813
	284	0.142000	24.235382	-97.225057
	285	0.142500	24.310913	-97.481520
	286	0.143000	24.409103	-97.122472
	287	0.143500	24.502258	-97.122472
	288	0.144000	24.597092	-97.532813
	289	0.144500	24.682693	-96.866009
	290	0.145000	24.780045	-97.122472
	291	0.145500	24.867325	-97.686690
	292	0.146000	24.962997	-97.481520
	293	0.146500	25.046921	-97.327643
	294	0.147000	25.143433	-97.122472
	295	0.147500	25.229034	-96.814717
	296	0.148000	25.324707	-97.532813
	297	0.148500	25.417023	-97.173765
	298	0.149000	25.511856	-96.404376
	299	0.149500	25.602493	-96.353084
	300	0.150000	25.710754	-97.327643
	301	0.150500	25.780411	-97.173765
	302	0.151000	25.890350	-96.917302
	303	0.151500	25.988541	-96.814717
	304	0.152000	26.023788	-96.096621
	305	0.152500	26.146317	-95.275940
	306	0.153000	26.285629	-97.071180
	307	0.153500	26.325912	-97.378935
	308	0.154000	26.431656	-96.199206
	309	0.154500	26.527328	-96.147914
	310	0.155000	26.595306	-96.609547
	311	0.155500	26.710281	-96.096621
	312	0.156000	26.794205	-96.301791
	313	0.156500	26.878128	-96.609547
	314	0.157000	26.984711	-96.404376
	315	0.157500	27.058563	-96.045328
	316	0.158000	27.158432	-95.737573
	317	0.158500	27.251587	-96.353084
	318	0.159000	27.347260	-96.353084
	319	0.159500	27.436218	-96.250499
	320	0.160000	27.519302	-95.224647
	321	0.160500	27.609940	-95.429818
	322	0.161000	27.715683	-96.506961
	323	0.161500	27.797089	-96.917302
	324	0.162000	27.890244	-94.609137
	325	0.162500	27.989273	-95.173355
	326	0.163000	28.069839	-95.634988
	327	0.163500	28.170547	-96.301791
	328	0.164000	28.259506	-95.840158
	329	0.164500	28.350143	-95.224647
	330	0.165000	28.437424	-95.583695
	331	0.165500	28.525543	-96.045328
	332	0.166000	28.625412	-95.327232
	333	0.166500	28.714371	-94.916892
	334	0.167000	28.808365	-95.019477
	335	0.167500	28.896484	-95.173355
	336	0.168000	28.992157	-95.378525
	337	0.168500	29.087830	-94.557844
	338	0.169000	29.176788	-95.019477
	339	0.169500	29.264069	-95.275940
	340	0.170000	29.347992	-95.224647
	341	0.170500	29.452057	-94.557844
	342	0.171000	29.546890	-94.865599
	343	0.171500	29.629135	-95.275940
	344	0.172000	29.732361	-96.096621
	345	0.172500	29.820480	-95.481110
	346	0.173000	29.909439	-93.737163
	347	0.173500	30.002594	-94.147503
	348	0.174000	30.090714	-94.711722
	349	0.174500	30.184708	-94.352674
	350	0.175000	30.275345	-93.839748
	351	0.175500	30.365982	-93.788456
	352	0.176000	30.465012	-93.788456
	353	0.176500	30.549774	-94.096211
	354	0.177000	30.640411	-93.070360
	355	0.177500	30.733566	-93.429408
	356	0.178000	30.829239	-94.506551
	357	0.178500	30.914001	-94.096211
	358	0.179000	31.023102	-94.198796
	359	0.179500	31.089401	-93.942333
	360	0.180000	31.200180	-93.480700
	361	0.180500	31.287460	-93.942333
	362	0.181000	31.376419	-94.096211
	363	0.181500	31.477966	-93.019067
	364	0.182000	31.564407	-93.019067
	365	0.182500	31.646652	-93.172945
	366	0.183000	31.749039	-93.121652
	367	0.183500	31.835480	-92.557434
	368	0.184000	31.930313	-91.788045
	369	0.184500	32.020950	-94.198796
	370	0.185000	32.114944	-93.531993
	371	0.185500	32.211456	-91.582875
	372	0.186000	32.296219	-92.044508
	373	0.186500	32.392731	-92.711312
	374	0.187000	32.483368	-91.839338
	375	0.187500	32.569809	-91.480290
	376	0.188000	32.664642	-91.736753
	377	0.188500	32.771225	-91.736753
	378	0.189000	32.846756	-91.428998
	379	0.189500	32.949142	-91.736753
	380	0.190000	33.069153	-90.916072
	381	0.190500	33.076706	-89.428587
	382	0.191000	33.245392	-90.608316
	383	0.191500	33.335190	-91.275120
	384	0.192000	33.383865	-90.659609
	385	0.192500	33.507233	-89.531173
	386	0.193000	33.583603	-90.249269
	387	0.193500	33.669205	-90.967364
	388	0.194000	33.781662	-90.197976
	389	0.194500	33.858032	-88.761784
	390	0.195000	33.953705	-90.300561
	391	0.195500	34.046860	-89.172125
	392	0.196000	34.134140	-89.120832
	393	0.196500	34.238205	-88.710492
	394	0.197000	34.317093	-88.454029
	395	0.197500	34.414444	-88.094981
	396	0.198000	34.524384	-88.761784
	397	0.198500	34.592361	-87.171715
	398	0.199000	34.677963	-86.043278
	399	0.199500	34.787903	-87.069129
	400	0.200000	34.867630	-86.504911
	401	0.200500	34.966660	-85.273890
	402	0.201000	35.065689	-85.325182
	403	0.201500	35.148773	-85.017427
	404	0.202000	35.240250	-84.401916
	405	0.202500	35.330887	-83.837698
	406	0.203000	35.428238	-83.017017
	407	0.203500	35.528946	-82.145043
	408	0.204000	35.602798	-81.375655
	409	0.204500	35.706863	-80.606266
	410	0.205000	35.797501	-80.093341
	411	0.205500	35.886459	-78.298101
	412	0.206000	35.978775	-77.220957
	413	0.206500	36.072769	-76.759324
	414	0.207000	36.165924	-76.297691
	415	0.207500	36.259079	-74.861499
	416	0.208000	36.339645	-73.425307
	417	0.208500	36.438675	-72.040408
	418	0.209000	36.541061	-71.065849
	419	0.209500	36.629181	-69.065439
	420	0.210000	36.712265	-66.552103
	421	0.210500	36.814651	-66.705981
	422	0.211000	36.901932	-64.500401
	423	0.211500	36.991730	-61.115091
	424	0.212000	37.083206	-60.243118
	425	0.212500	37.178879	-56.652638
	426	0.213000	37.273712	-54.652228
	427	0.213500	37.365189	-52.087600
	428	0.214000	37.453308	-49.215216
	429	0.214500	37.544785	-46.753173
	430	0.215000	37.637100	-43.932082
	431	0.215500	37.724380	-40.392895
	432	0.216000	37.822571	-37.264049
	433	0.216500	37.910690	-33.519691
	434	0.217000	37.997971	-30.185675
	435	0.217500	38.107071	-26.851658
	436	0.218000	38.177567	-21.260768
	437	0.218500	38.284988	-17.926752
	438	0.219000	38.377304	-14.592735
	439	0.219500	38.461227	-9.668649
	440	0.220000	38.561096	-4.436807
	441	0.220500	38.652573	0.589865
	442	0.221000	38.743210	4.590685
	443	0.221500	38.838043	9.873819
	444	0.222000	38.926163	15.516001
	445	0.222500	39.022675	19.465529
	446	0.223000	39.109116	24.799955
	447	0.223500	39.201431	30.288260
	448	0.224000	39.295425	35.776564
	449	0.224500	39.386063	40.341603
	450	0.225000	39.481735	45.573444
	451	0.225500	39.569016	50.959164
	452	0.226000	39.664688	55.575494
	453	0.226500	39.747772	59.832777
	454	0.227000	39.857712	64.090060
	455	0.227500	39.934921	69.270609
	456	0.228000	40.045700	72.245578
	457	0.228500	40.164032	76.041228
	458	0.229000	40.161514	82.196336
	459	0.229500	40.329361	84.094161
	460	0.230000	40.434265	85.991986
	461	0.230500	40.475388	89.326002
	462	0.231000	40.601273	92.198386
	463	0.231500	40.680161	94.506551
	464	0.232000	40.750656	95.788866
	465	0.232500	40.869827	97.532813
	466	0.233000	40.943680	99.584515
	467	0.233500	41.037674	99.943563
	468	0.234000	41.135025	101.482340
	469	0.234500	41.222305	102.662069
	470	0.235000	41.319656	102.918532
	471	0.235500	41.405258	104.200846
	472	0.236000	41.499252	105.277990
	473	0.236500	41.611710	105.124112
	474	0.237000	41.667099	106.047379
	475	0.237500	41.765289	106.611597
	476	0.238000	41.873550	106.252549
	477	0.238500	41.948242	106.919352
	478	0.239000	42.051468	107.380985
	479	0.239500	42.144623	107.432278
	480	0.240000	42.229385	107.740033
	481	0.240500	42.325897	107.688741
	482	0.241000	42.413177	108.304251
	483	0.241500	42.501297	108.201666
	484	0.242000	42.598648	108.663299
	485	0.242500	42.687607	109.330103
	486	0.243000	42.779922	110.150784
	487	0.243500	42.870560	109.381395
	488	0.244000	42.963715	109.535273
	489	0.244500	43.059387	109.381395
	490	0.245000	43.151703	111.125343
	491	0.245500	43.239822	110.253369
	492	0.246000	43.333817	109.689151
	493	0.246500	43.418579	111.279220
	494	0.247000	43.516769	110.868880
	495	0.247500	43.613281	110.561124
	496	0.248000	43.706436	110.561124
	497	0.248500	43.787003	111.689561
	498	0.249000	43.887711	109.945614
	499	0.249500	43.972473	111.330513
	500	0.250000	44.062271	112.664120
	501	0.250500	44.156265	110.099491
	502	0.251000	44.245224	111.330513
	503	0.251500	44.327469	112.253779
	504	0.252000	44.376984	111.792146
	505	0.252500	44.409714	111.946024
	506	0.253000	44.423141	111.997316
	507	0.253500	44.430695	112.510242
	508	0.254000	44.418106	113.125753
	509	0.254500	44.401321	112.510242
	510	0.255000	44.374466	112.510242
	511	0.255500	44.336700	113.279630
	512	0.256000	44.303970	114.049019
	513	0.256500	44.239349	113.587386
	514	0.257000	44.203262	112.612827
	515	0.257500	44.142838	113.279630
	516	0.258000	44.067307	114.510652
	517	0.258500	44.019470	113.895141
	518	0.259000	43.941422	113.638678
	519	0.259500	43.865891	113.382215
	520	0.260000	43.793716	113.484801
	521	0.260500	43.718185	113.330923
	522	0.261000	43.651886	114.151604
	523	0.261500	43.563766	114.356774
	524	0.262000	43.485718	114.305482
	525	0.262500	43.407669	114.869700
	526	0.263000	43.317871	114.664530
	527	0.263500	43.236465	115.228748
	528	0.264000	43.149185	114.664530
	529	0.264500	43.065262	115.331333
	530	0.265000	42.977142	115.177455
	531	0.265500	42.900772	114.664530
	532	0.266000	42.801743	114.613237
	533	0.266500	42.726212	114.869700
	534	0.267000	42.643967	115.792966
	535	0.267500	42.496262	115.177455
	536	0.268000	42.487869	114.459359
	537	0.268500	42.364502	115.228748
	538	0.269000	42.246170	116.203307
	539	0.269500	42.202530	115.536503
	540	0.270000	42.079163	114.305482
	541	0.270500	41.992722	115.280040
	542	0.271000	41.920547	116.100721
	543	0.271500	41.809769	115.741673
	544	0.272000	41.735077	114.972285
	545	0.272500	41.633530	115.536503
	546	0.273000	41.544571	116.049429
	547	0.273500	41.460648	115.792966
	548	0.274000	41.361618	115.331333
	549	0.274500	41.272659	116.049429
	550	0.275000	41.200485	116.254599
	551	0.275500	41.077957	116.049429
	552	0.276000	41.000748	116.408477
	553	0.276500	40.916824	115.587796
	554	0.277000	40.806046	114.972285
	555	0.277500	40.725479	116.613647
	556	0.278000	40.632324	116.254599
	557	0.278500	40.536652	115.485211
	558	0.279000	40.448532	116.459769
	559	0.279500	40.356216	116.459769
	560	0.280000	40.268097	116.100721
	561	0.280500	40.179138	115.228748
	562	0.281000	40.085983	116.511062
	563	0.281500	39.992828	116.357184
	564	0.282000	39.901352	115.382625
	565	0.282500	39.808197	116.921402
	566	0.283000	39.710846	114.818407
	567	0.283500	39.623566	115.741673
	568	0.284000	39.537125	116.357184
	569	0.284500	39.447327	115.536503
	570	0.285000	39.339905	115.639088
	571	0.285500	39.255142	117.075280
	572	0.286000	39.169540	116.459769
	573	0.286500	39.067154	116.664940
	574	0.287000	38.976517	116.664940
	575	0.287500	38.894272	115.023578
	576	0.288000	38.798599	115.998136
	577	0.288500	38.704605	116.921402
	578	0.289000	38.616486	116.100721
	579	0.289500	38.522491	115.023578
	580	0.290000	38.434372	116.100721
	581	0.290500	38.337021	116.305892
	582	0.291000	38.247223	115.433918
	583	0.291500	38.157425	116.049429
	584	0.292000	38.060074	116.408477
	585	0.292500	37.972794	115.946844
	586	0.293000	37.880478	115.895551
	587	0.293500	37.788162	116.203307
	588	0.294000	37.697525	115.690381
	589	0.294500	37.602692	116.254599
	590	0.295000	37.508698	116.664940
	591	0.295500	37.428970	116.203307
	592	0.296000	37.333298	115.690381
	593	0.296500	37.234268	116.562354
	594	0.297000	37.153702	116.818817
	595	0.297500	37.050476	116.767525
	596	0.298000	36.962357	115.792966
	597	0.298500	36.868362	116.511062
	598	0.299000	36.776886	116.408477
	599	0.299500	36.695480	116.357184
	600	0.300000	36.603165	115.792966
	601	0.300500	36.504974	115.690381
	602	0.301000	36.410141	116.305892
	603	0.301500	36.318665	116.203307
	604	0.302000	36.235580	116.357184
	605	0.302500	36.141586	115.895551
	606	0.303000	36.045914	116.562354
	607	0.303500	35.946884	116.818817
	608	0.304000	35.869675	116.408477
	609	0.304500	35.770645	116.357184
	610	0.305000	35.696793	115.998136
	611	0.305500	35.590210	117.383036
	612	0.306000	35.466003	117.434328
	613	0.306500	35.444183	116.100721
	614	0.307000	35.309067	115.587796
	615	0.307500	35.204163	116.152014
	616	0.308000	35.150452	116.562354
	617	0.308500	35.025406	116.254599
	618	0.309000	34.950714	115.844259
	619	0.309500	34.860077	116.152014
	620	0.310000	34.758530	117.023988
	621	0.310500	34.679642	116.049429
	622	0.311000	34.578934	116.203307
	623	0.311500	34.488297	116.562354
	624	0.312000	34.401016	116.767525
	625	0.312500	34.303665	116.203307
	626	0.313000	34.208832	115.844259
	627	0.313500	34.143372	115.485211
	628	0.314000	34.013290	116.100721
	629	0.314500	33.946152	115.433918
	630	0.315000	33.850479	114.767115
	631	0.315500	33.743896	115.382625
	632	0.316000	33.669205	115.895551
	633	0.316500	33.572693	116.459769
	634	0.317000	33.478699	115.792966
	635	0.317500	33.388901	115.895551
	636	0.318000	33.294067	115.998136
	637	0.318500	33.203430	116.152014
	638	0.319000	33.118668	115.844259
	639	0.319500	33.016281	116.408477
	640	0.320000	32.930679	115.741673
	641	0.320500	32.840042	115.895551
	642	0.321000	32.742691	115.485211
	643	0.321500	32.655411	115.536503
	644	0.322000	32.561417	115.587796
	645	0.322500	32.472458	114.972285
	646	0.323000	32.391891	115.382625
	647	0.323500	32.275238	117.075280
	648	0.324000	32.191315	114.664530
	649	0.324500	32.104034	115.587796
	650	0.325000	32.003326	116.767525
	651	0.325500	31.916885	116.613647
	652	0.326000	31.829605	114.869700
	653	0.326500	31.733093	115.074870
	654	0.327000	31.644974	116.767525
	655	0.327500	31.546783	115.946844
	656	0.328000	31.458664	114.818407
	657	0.328500	31.366348	115.741673
	658	0.329000	31.274033	116.408477
	659	0.329500	31.190948	115.690381
	660	0.330000	31.090240	115.639088
	661	0.330500	31.007156	115.844259
	662	0.331000	30.906448	115.998136
	663	0.331500	30.815811	115.690381
	664	0.332000	30.722656	115.895551
	665	0.332500	30.646286	115.690381
	666	0.333000	30.537186	116.100721
	667	0.333500	30.448227	116.357184
	668	0.334000	30.369339	115.690381
	669	0.334500	30.259399	115.844259
	670	0.335000	30.165405	115.690381
	671	0.335500	30.085678	116.305892
	672	0.336000	29.989166	115.690381
	673	0.336500	29.892654	115.587796
	674	0.337000	29.812927	115.639088
	675	0.337500	29.707184	115.536503
	676	0.338000	29.629135	115.741673
	677	0.338500	29.530945	115.382625
	678	0.339000	29.441986	116.254599
	679	0.339500	29.348831	115.792966
	680	0.340000	29.252319	115.177455
	681	0.340500	29.163361	115.485211
	682	0.341000	29.069366	115.741673
	683	0.341500	28.982086	115.382625
	684	0.342000	28.884735	115.382625
	685	0.342500	28.799133	115.023578
	686	0.343000	28.708496	114.613237
	687	0.343500	28.629608	114.869700
	688	0.344000	28.501205	116.459769
	689	0.344500	28.408051	115.639088
	690	0.345000	28.382034	114.561944
	691	0.345500	28.240204	114.767115
	692	0.346000	28.147049	114.920992
	693	0.346500	28.077393	115.639088
	694	0.347000	27.953186	115.382625
	695	0.347500	27.886887	114.561944
	696	0.348000	27.792053	115.536503
	697	0.348500	27.692184	115.177455
	698	0.349000	27.610779	115.998136
	699	0.349500	27.515106	115.023578
	700	0.350000	27.422791	115.485211
	701	0.350500	27.323761	114.869700
	702	0.351000	27.233963	114.869700
	703	0.351500	27.138290	114.920992
	704	0.352000	27.070313	115.074870
	705	0.352500	26.951141	115.023578
	706	0.353000	26.877289	114.510652
	707	0.353500	26.781616	114.305482
	708	0.354000	26.670837	114.664530
	709	0.354500	26.602859	114.715822
	710	0.355000	26.500473	114.869700
	711	0.355500	26.407318	114.972285
	712	0.356000	26.314163	116.870110
	713	0.356500	26.223526	114.510652
	714	0.357000	26.139603	114.664530
	715	0.357500	26.045609	115.280040
	716	0.358000	25.950775	116.254599
	717	0.358500	25.859299	115.023578
	718	0.359000	25.772018	114.715822
	719	0.359500	25.676346	115.639088
	720	0.360000	25.585709	115.126163
	721	0.360500	25.495911	115.485211
	722	0.361000	25.397720	114.818407
	723	0.361500	25.320511	114.715822
	724	0.362000	25.203018	114.869700
	725	0.362500	25.121613	115.485211
	726	0.363000	25.034332	115.639088
	727	0.363500	24.936981	115.741673
	728	0.364000	24.853058	114.510652
	729	0.364500	24.758224	114.305482
	730	0.365000	24.662552	115.690381
	731	0.365500	24.571915	114.818407
	732	0.366000	24.485474	114.664530
	733	0.366500	24.390640	114.664530
	734	0.367000	24.306717	115.433918
	735	0.367500	24.204330	114.151604
	736	0.368000	24.112015	114.561944
	737	0.368500	24.021378	115.023578
	738	0.369000	23.935776	115.023578
	739	0.369500	23.841782	114.613237
	740	0.370000	23.748627	114.459359
	741	0.370500	23.659668	114.664530
	742	0.371000	23.576584	114.920992
	743	0.371500	23.459091	114.305482
	744	0.372000	23.376007	115.023578
	745	0.372500	23.291245	113.792556
	746	0.373000	23.193054	114.100311
	747	0.373500	23.096542	115.177455
	748	0.374000	23.015976	114.715822
	749	0.374500	22.921982	113.689971
	750	0.375000	22.830505	113.843849
	751	0.375500	22.735672	114.510652
	752	0.376000	22.646713	114.100311
	753	0.376500	22.555237	113.741263
	754	0.377000	22.460403	114.049019
	755	0.377500	22.366409	114.254189
	756	0.378000	22.274933	113.689971
	757	0.378500	22.187653	114.049019
	758	0.379000	22.092819	114.305482
	759	0.379500	21.997986	115.228748
	760	0.380000	21.910706	113.587386
	761	0.380500	21.818390	113.997726
	762	0.381000	21.723557	114.356774
	763	0.381500	21.634598	114.613237
	764	0.382000	21.561584	114.151604
	765	0.382500	21.421432	115.074870
	766	0.383000	21.352615	114.202896
	767	0.383500	21.304779	113.587386
	768	0.384000	21.157913	114.305482
	769	0.384500	21.079025	114.920992
	770	0.385000	20.995102	113.895141
	771	0.385500	20.885162	113.382215
	772	0.386000	20.823898	114.613237
	773	0.386500	20.713120	114.305482
	774	0.387000	20.619125	114.151604
	775	0.387500	20.531845	113.741263
	776	0.388000	20.437012	114.305482
	777	0.388500	20.351410	115.433918
	778	0.389000	20.253220	114.869700
	779	0.389500	20.160904	113.484801
	780	0.390000	20.055161	113.946434
	781	0.390500	19.993057	114.715822
	782	0.391000	19.878082	114.664530
	783	0.391500	19.808426	113.382215
	784	0.392000	19.705200	113.792556
	785	0.392500	19.601974	113.946434
	786	0.393000	19.531479	113.997726
	787	0.393500	19.428253	113.792556
	788	0.394000	19.337616	113.895141
	789	0.394500	19.255371	114.202896
	790	0.395000	19.157181	113.638678
	791	0.395500	19.062347	113.484801
	792	0.396000	18.969193	113.279630
	793	0.396500	18.876877	113.792556
	794	0.397000	18.782883	114.305482
	795	0.397500	18.693924	114.459359
	796	0.398000	18.604126	112.869290
	797	0.398500	18.508453	113.484801
	798	0.399000	18.420334	114.151604
	799	0.399500	18.321304	113.689971
	800	0.400000	18.242416	113.587386
	801	0.400500	18.139191	113.382215
	802	0.401000	18.055267	114.049019
	803	0.401500	17.964630	114.356774
	804	0.402000	17.858047	113.997726
	805	0.402500	17.786713	112.971875
	806	0.403000	17.681808	112.664120
	807	0.403500	17.589493	113.587386
	808	0.404000	17.502213	113.689971
	809	0.404500	17.410736	113.074460
	810	0.405000	17.318420	112.407657
	811	0.405500	17.228622	113.330923
	812	0.406000	17.132111	113.638678
	813	0.406500	17.042313	113.279630
	814	0.407000	16.951675	112.612827
	815	0.407500	16.856003	113.946434
	816	0.408000	16.763687	114.202896
	817	0.408500	16.679764	113.074460
	818	0.409000	16.579056	112.715412
	819	0.409500	16.504364	113.587386
	820	0.410000	16.385193	113.433508
	821	0.410500	16.302109	112.920582
	822	0.411000	16.218185	112.561534
	823	0.411500	16.112442	112.510242
	824	0.412000	16.026001	113.792556
	825	0.412500	15.942078	113.536093
	826	0.413000	15.842209	112.407657
	827	0.413500	15.755768	113.279630
	828	0.414000	15.659256	113.279630
	829	0.414500	15.568619	113.433508
	830	0.415000	15.477982	113.125753
	831	0.415500	15.387344	113.125753
	832	0.416000	15.295029	113.587386
	833	0.416500	15.199356	112.561534
	834	0.417000	15.112915	113.074460
	835	0.417500	15.018921	112.817997
	836	0.418000	14.924088	113.023167
	837	0.418500	14.831772	113.330923
	838	0.419000	14.756241	112.099901
	839	0.419500	14.646301	112.920582
	840	0.420000	14.564056	112.151194
	841	0.420500	14.501114	111.740853
	842	0.421000	14.334106	114.869700
	843	0.421500	14.291306	114.100311
	844	0.422000	14.229202	112.151194
	845	0.422500	14.086533	112.766705
	846	0.423000	14.021912	114.151604
	847	0.423500	13.928757	113.177045
	848	0.424000	13.817139	112.561534
	849	0.424500	13.745804	112.561534
	850	0.425000	13.630829	113.177045
	851	0.425500	13.546906	112.715412
	852	0.426000	13.465500	112.869290
	853	0.426500	13.359756	112.869290
	854	0.427000	13.278351	113.177045
	855	0.427500	13.178482	113.074460
	856	0.428000	13.087006	112.920582
	857	0.428500	12.993011	112.151194
	858	0.429000	12.909927	113.023167
	859	0.429500	12.810059	113.638678
	860	0.430000	12.732010	112.612827
	861	0.430500	12.630463	111.843438
	862	0.431000	12.530594	113.074460
	863	0.431500	12.460098	113.177045
	864	0.432000	12.357712	112.869290
	865	0.432500	12.266235	112.202486
	866	0.433000	12.174759	112.458949
	867	0.433500	12.083282	112.561534
	868	0.434000	11.990128	112.151194
	869	0.434500	11.895294	112.561534
	870	0.435000	11.806335	112.305072
	871	0.435500	11.712341	111.997316
	872	0.436000	11.623383	112.407657
	873	0.436500	11.532745	112.305072
	874	0.437000	11.434555	112.099901
	875	0.437500	11.347275	112.510242
	876	0.438000	11.245728	112.971875
	877	0.438500	11.170197	112.305072
	878	0.439000	11.060257	112.920582
	879	0.439500	10.988922	112.612827
	880	0.440000	10.887375	112.510242
	881	0.440500	10.786667	112.561534
	882	0.441000	10.707779	110.817587
	883	0.441500	10.612946	111.433098
	884	0.442000	10.517273	113.023167
	885	0.442500	10.425797	112.407657
	886	0.443000	10.334320	111.381805
	887	0.443500	10.246201	111.330513
	888	0.444000	10.152206	112.048609
	889	0.444500	10.059891	111.740853
	890	0.445000	9.968414	111.689561
	891	0.445500	9.876099	111.894731
	892	0.446000	9.780426	112.612827
	893	0.446500	9.694824	111.946024
	894	0.447000	9.597473	111.843438
	895	0.447500	9.503479	112.920582
	896	0.448000	9.431305	111.381805
	897	0.448500	9.312134	112.048609
	898	0.449000	9.237442	112.612827
	899	0.449500	9.141769	111.279220
	900	0.450000	9.047775	111.176635
	901	0.450500	8.955460	112.048609
	902	0.451000	8.866501	111.740853
	903	0.451500	8.769150	111.535683
	904	0.452000	8.680191	111.740853
	905	0.452500	8.586197	112.048609
	906	0.453000	8.497238	112.510242
	907	0.453500	8.409119	111.227928
	908	0.454000	8.315964	112.407657
	909	0.454500	8.217773	112.305072
	910	0.455000	8.136368	111.022757
	911	0.455500	8.038177	112.048609
	912	0.456000	7.950058	111.997316
	913	0.456500	7.854385	111.484391
	914	0.457000	7.757874	111.484391
	915	0.457500	7.688217	111.535683
	916	0.458000	7.573242	111.894731
	917	0.458500	7.495193	111.638268
	918	0.459000	7.431412	111.279220
	919	0.459500	7.256012	113.125753
	920	0.460000	7.230835	112.099901
	921	0.460500	7.150269	111.176635
	922	0.461000	7.008438	111.381805
	923	0.461500	6.953049	112.099901
	924	0.462000	6.836395	112.253779
	925	0.462500	6.739883	111.792146
	926	0.463000	6.673584	110.920172
	927	0.463500	6.564484	111.946024
	928	0.464000	6.475525	111.843438
	929	0.464500	6.394119	110.868880
	930	0.465000	6.289215	110.868880
	931	0.465500	6.206131	110.920172
	932	0.466000	6.107101	110.868880
	933	0.466500	6.014786	110.561124
	934	0.467000	5.927505	111.074050
	935	0.467500	5.824280	111.792146
	936	0.468000	5.726089	111.176635
	937	0.468500	5.658951	110.817587
	938	0.469000	5.554047	110.766295
	939	0.469500	5.460052	111.074050
	940	0.470000	5.382843	110.920172
	941	0.470500	5.279617	111.381805
	942	0.471000	5.189819	111.638268
	943	0.471500	5.102539	111.586976
	944	0.472000	5.003510	111.330513
	945	0.472500	4.918747	110.715002
	946	0.473000	4.818039	110.561124
	947	0.473500	4.730759	110.817587
	948	0.474000	4.642639	111.125343
	949	0.474500	4.546967	110.766295
	950	0.475000	4.458847	110.766295
	951	0.475500	4.363174	111.074050
	952	0.476000	4.269180	111.022757
	953	0.476500	4.178543	110.253369
	954	0.477000	4.085388	111.843438
	955	0.477500	3.990555	111.227928
	956	0.478000	3.907471	110.304662
	957	0.478500	3.808441	110.458539
	958	0.479000	3.708572	110.509832
	959	0.479500	3.634720	109.535273
	960	0.480000	3.537369	110.355954
	961	0.480500	3.445892	111.176635
	962	0.481000	3.349380	110.561124
	963	0.481500	3.257904	110.407247
	964	0.482000	3.169785	110.868880
	965	0.482500	3.073273	111.227928
	966	0.483000	2.980118	110.715002
	967	0.483500	2.890320	110.612417
	968	0.484000	2.803040	110.920172
	969	0.484500	2.710724	110.920172
	970	0.485000	2.607498	110.715002
	971	0.485500	2.525253	110.920172
	972	0.486000	2.427902	110.971465
	973	0.486500	2.353210	110.663709
	974	0.487000	2.240753	112.151194
	975	0.487500	2.162704	110.355954
	976	0.488000	2.071228	110.407247
	977	0.488500	1.962967	110.715002
	978	0.489000	1.884079	110.766295
	979	0.489500	1.790085	109.791736
	980	0.490000	1.692734	110.150784
	981	0.490500	1.602097	110.458539
	982	0.491000	1.510620	110.817587
	983	0.491500	1.420822	109.843028
	984	0.492000	1.325989	110.304662
	985	0.492500	1.231155	110.355954
	986	0.493000	1.143036	110.304662
	987	0.493500	1.054916	110.766295
	988	0.494000	0.964279	110.150784
	989	0.494500	0.868607	110.509832
	990	0.495000	0.776291	110.304662
	991	0.495500	0.689011	109.843028
	992	0.496000	0.608444	109.381395
	993	0.496500	0.495987	109.791736
	994	0.497000	0.422974	109.330103
	995	0.497500	0.355835	109.637858
	996	0.498000	0.180435	110.868880
	997	0.498500	0.161972	110.099491
	998	0.499000	0.061264	109.381395
	999	0.499500	-0.065460	110.202076
	1000	0.500000	-0.118332	110.253369
	1001	0.500500	-0.241699	109.791736
	1002	0.501000	-0.327301	109.432688
	1003	0.501500	-0.397797	109.689151
	1004	0.502000	-0.509415	109.586566
	1005	0.502500	-0.596695	108.817177
	1006	0.503000	-0.689011	109.791736
	1007	0.503500	-0.777969	110.150784
	1008	0.504000	-0.867767	109.227518
	1009	0.504500	-0.965118	109.586566
	1010	0.505000	-1.053238	109.432688
	1011	0.505500	-1.122894	109.176225
	1012	0.506000	-1.250458	110.561124
	1013	0.506500	-1.330185	110.612417
	1014	0.507000	-1.414108	109.432688
	1015	0.507500	-1.514816	110.150784
	1016	0.508000	-1.603775	110.715002
	1017	0.508500	-1.691895	110.048199
	1018	0.509000	-1.794281	108.355544
	1019	0.509500	-1.877365	109.843028
	1020	0.510000	-1.968002	110.202076
	1021	0.510500	-2.065353	109.124933
	1022	0.511000	-2.144241	108.765885
	1023	0.511500	-2.245789	109.330103
	1024	0.512000	-2.335587	109.535273
	1025	0.512500	-2.428741	109.586566
	1026	0.513000	-2.523575	109.278810
	1027	0.513500	-2.617569	109.278810
	1028	0.514000	-2.706528	109.894321
	1029	0.514500	-2.798843	110.048199
	1030	0.515000	-2.879410	109.791736
	1031	0.515500	-2.984314	109.843028
	1032	0.516000	-3.081665	109.945614
	1033	0.516500	-3.156357	109.894321
	1034	0.517000	-3.252869	110.150784
	1035	0.517500	-3.353577	110.304662
	1036	0.518000	-3.428268	108.458129
	1037	0.518500	-3.529816	110.150784
	1038	0.519000	-3.620453	110.150784
	1039	0.519500	-3.721161	110.355954
	1040	0.520000	-3.810959	109.483980
	1041	0.520500	-3.892365	109.278810
	1042	0.521000	-3.993073	109.637858
	1043	0.521500	-4.080353	108.919762
	1044	0.522000	-4.172668	108.663299
	1045	0.522500	-4.266663	108.919762
	1046	0.523000	-4.357300	109.124933
	1047	0.523500	-4.452133	108.817177
	1048	0.524000	-4.542770	109.124933
	1049	0.524500	-4.638443	109.022347
	1050	0.525000	-4.712296	108.919762
	1051	0.525500	-4.829788	109.227518
	1052	0.526000	-4.904480	108.560714
	1053	0.526500	-4.997635	108.868470
	1054	0.527000	-5.105057	108.252959
	1055	0.527500	-5.183105	109.330103
	1056	0.528000	-5.276260	109.022347
	1057	0.528500	-5.369415	108.355544
	1058	0.529000	-5.455017	108.919762
	1059	0.529500	-5.559082	109.381395
	1060	0.530000	-5.641327	109.022347
	1061	0.530500	-5.737839	108.099081
	1062	0.531000	-5.830154	108.714592
	1063	0.531500	-5.922470	108.868470
	1064	0.532000	-6.011429	108.304251
	1065	0.532500	-6.100388	108.560714
	1066	0.533000	-6.197739	108.406837
	1067	0.533500	-6.286697	108.458129
	1068	0.534000	-6.384888	108.509422
	1069	0.534500	-6.457062	108.047789
	1070	0.535000	-6.566162	106.611597
	1071	0.535500	-6.641693	108.355544
	1072	0.536000	-6.728134	109.124933
	1073	0.536500	-6.879196	109.843028
	1074	0.537000	-6.895981	108.304251
	1075	0.537500	-7.015152	107.740033
	1076	0.538000	-7.131805	109.124933
	1077	0.538500	-7.181320	109.073640
	1078	0.539000	-7.308884	108.714592
	1079	0.539500	-7.395325	108.099081
	1080	0.540000	-7.468338	108.868470
	1081	0.540500	-7.580795	108.612007
	1082	0.541000	-7.660522	108.714592
	1083	0.541500	-7.758713	106.970645
	1084	0.542000	-7.851028	108.509422
	1085	0.542500	-7.931595	109.176225
	1086	0.543000	-8.036499	108.663299
	1087	0.543500	-8.124619	107.278400
	1088	0.544000	-8.191757	107.483570
	1089	0.544500	-8.322678	109.176225
	1090	0.545000	-8.398209	108.663299
	1091	0.545500	-8.484650	107.688741
	1092	0.546000	-8.590393	107.432278
	1093	0.546500	-8.676834	108.663299
	1094	0.547000	-8.767471	108.509422
	1095	0.547500	-8.861465	107.893911
	1096	0.548000	-8.947067	107.432278
	1097	0.548500	-9.041901	108.201666
	1098	0.549000	-9.136734	108.714592
	1099	0.549500	-9.222336	107.740033
	1100	0.550000	-9.320526	108.201666
	1101	0.550500	-9.408646	108.304251
	1102	0.551000	-9.503479	108.868470
	1103	0.551500	-9.594116	108.765885
	1104	0.552000	-9.687271	108.047789
	1105	0.552500	-9.777908	108.201666
	1106	0.553000	-9.867706	107.329693
	1107	0.553500	-9.948273	107.380985
	1108	0.554000	-10.062408	107.534863
	1109	0.554500	-10.144653	108.201666
	1110	0.555000	-10.230255	107.227108
	1111	0.555500	-10.329285	107.534863
	1112	0.556000	-10.422440	108.971055
	1113	0.556500	-10.504684	106.149964
	1114	0.557000	-10.605392	107.329693
	1115	0.557500	-10.691833	108.150374
	1116	0.558000	-10.791702	108.047789
	1117	0.558500	-10.880661	107.278400
	1118	0.559000	-10.963745	107.227108
	1119	0.559500	-11.064453	108.099081
	1120	0.560000	-11.147537	108.406837
	1121	0.560500	-11.240692	106.970645
	1122	0.561000	-11.335526	106.816767
	1123	0.561500	-11.432877	106.919352
	1124	0.562000	-11.522675	107.483570
	1125	0.562500	-11.611633	107.124522
	1126	0.563000	-11.708145	106.560304
	1127	0.563500	-11.796265	107.586156
	1128	0.564000	-11.906204	107.791326
	1129	0.564500	-11.975021	106.047379
	1130	0.565000	-12.068176	107.175815
	1131	0.565500	-12.174759	108.099081
	1132	0.566000	-12.251129	107.227108
	1133	0.566500	-12.348480	107.227108
	1134	0.567000	-12.442474	106.970645
	1135	0.567500	-12.531433	107.073230
	1136	0.568000	-12.627945	107.124522
	1137	0.568500	-12.710190	106.457719
	1138	0.569000	-12.807541	107.740033
	1139	0.569500	-12.899857	107.996496
	1140	0.570000	-12.987976	107.278400
	1141	0.570500	-13.080292	106.765475
	1142	0.571000	-13.172607	107.380985
	1143	0.571500	-13.258209	106.868060
	1144	0.572000	-13.359756	106.560304
	1145	0.572500	-13.452072	107.278400
	1146	0.573000	-13.526764	106.816767
	1147	0.573500	-13.629150	106.970645
	1148	0.574000	-13.704681	104.816357
	1149	0.574500	-13.812103	106.765475
	1150	0.575000	-13.940506	108.099081
	1151	0.575500	-13.951416	106.662889
	1152	0.576000	-14.086533	105.585746
	1153	0.576500	-14.196472	106.714182
	1154	0.577000	-14.254379	107.534863
	1155	0.577500	-14.380264	106.816767
	1156	0.578000	-14.450760	106.098671
	1157	0.578500	-14.541397	106.355134
	1158	0.579000	-14.640427	106.560304
	1159	0.579500	-14.724350	105.688331
	1160	0.580000	-14.825058	106.611597
	1161	0.580500	-14.912338	106.611597
	1162	0.581000	-14.999619	106.611597
	1163	0.581500	-15.103683	106.611597
	1164	0.582000	-15.192642	106.868060
	1165	0.582500	-15.261459	106.098671
	1166	0.583000	-15.389023	106.662889
	1167	0.583500	-15.466232	106.303841
	1168	0.584000	-15.550156	106.868060
	1169	0.584500	-15.655899	106.509012
	1170	0.585000	-15.730591	106.662889
	1171	0.585500	-15.832138	106.303841
	1172	0.586000	-15.928650	106.047379
	1173	0.586500	-16.010056	106.355134
	1174	0.587000	-16.105728	106.457719
	1175	0.587500	-16.203079	105.790916
	1176	0.588000	-16.287842	106.509012
	1177	0.588500	-16.385193	105.637038
	1178	0.589000	-16.471634	105.944793
	1179	0.589500	-16.566467	105.944793
	1180	0.590000	-16.655426	106.765475
	1181	0.590500	-16.746063	106.047379
	1182	0.591000	-16.835861	106.098671
	1183	0.591500	-16.930695	106.252549
	1184	0.592000	-17.011261	105.124112
	1185	0.592500	-17.124557	105.944793
	1186	0.593000	-17.205963	106.047379
	1187	0.593500	-17.289886	105.790916
	1188	0.594000	-17.393951	105.790916
	1189	0.594500	-17.484589	105.483160
	1190	0.595000	-17.570190	104.046969
	1191	0.595500	-17.668381	105.329283
	1192	0.596000	-17.759857	106.303841
	1193	0.596500	-17.850494	105.483160
	1194	0.597000	-17.941132	105.688331
	1195	0.597500	-18.030090	106.252549
	1196	0.598000	-18.127441	106.098671
	1197	0.598500	-18.216400	104.816357
	1198	0.599000	-18.306198	105.996086
	1199	0.599500	-18.399353	106.355134
	1200	0.600000	-18.492508	105.739623
	1201	0.600500	-18.582306	104.816357
	1202	0.601000	-18.673782	104.970235
	1203	0.601500	-18.755188	105.534453
	1204	0.602000	-18.865967	106.457719
	1205	0.602500	-18.964157	106.714182
	1206	0.603000	-19.040527	105.124112
	1207	0.603500	-19.131165	104.867650
	1208	0.604000	-19.236069	105.790916
	1209	0.604500	-19.313278	105.842208
	1210	0.605000	-19.410629	105.637038
	1211	0.605500	-19.507141	105.226698
	1212	0.606000	-19.596939	105.893501
	1213	0.606500	-19.692612	105.585746
	1214	0.607000	-19.774857	104.765064
	1215	0.607500	-19.864655	105.380575
	1216	0.608000	-19.967880	106.355134
	1217	0.608500	-20.048447	105.175405
	1218	0.609000	-20.144958	104.918942
	1219	0.609500	-20.238953	105.534453
	1220	0.610000	-20.332108	105.534453
	1221	0.610500	-20.418549	105.790916
	1222	0.611000	-20.518417	105.739623
	1223	0.611500	-20.606537	104.816357
	1224	0.612000	-20.693817	105.124112
	1225	0.612500	-20.774384	104.200846
	1226	0.613000	-20.889359	106.406427
	1227	0.613500	-20.998459	105.380575
	1228	0.614000	-21.017761	104.816357
	1229	0.614500	-21.148682	104.867650
	1230	0.615000	-21.257782	105.072820
	1231	0.615500	-21.314850	104.662479
	1232	0.616000	-21.444092	104.457309
	1233	0.616500	-21.515427	103.841798
	1234	0.617000	-21.610260	104.098261
	1235	0.617500	-21.709290	103.636628
	1236	0.618000	-21.789017	104.098261
	1237	0.618500	-21.893082	104.200846
	1238	0.619000	-21.977844	104.765064
	1239	0.619500	-22.065964	104.457309
	1240	0.620000	-22.166672	104.303431
	1241	0.620500	-22.265701	104.303431
	1242	0.621000	-22.324448	104.765064
	1243	0.621500	-22.446976	104.662479
	1244	0.622000	-22.523346	104.200846
	1245	0.622500	-22.616501	104.406017
	1246	0.623000	-22.725601	104.457309
	1247	0.623500	-22.793579	104.406017
	1248	0.624000	-22.898483	103.995676
	1249	0.624500	-22.994156	103.380165
	1250	0.625000	-23.078079	104.149554
	1251	0.625500	-23.176270	104.662479
	1252	0.626000	-23.266907	104.098261
	1253	0.626500	-23.355865	103.482750
	1254	0.627000	-23.454056	103.328873
	1255	0.627500	-23.542175	104.149554
	1256	0.628000	-23.632813	103.841798
	1257	0.628500	-23.720093	103.841798
	1258	0.629000	-23.816605	104.098261
	1259	0.629500	-23.908081	104.457309
	1260	0.630000	-24.006271	104.611187
	1261	0.630500	-24.076767	103.534043
	1262	0.631000	-24.192581	104.098261
	1263	0.631500	-24.273987	104.611187
	1264	0.632000	-24.363785	105.021527
	1265	0.632500	-24.467010	103.995676
	1266	0.633000	-24.549255	103.944383
	1267	0.633500	-24.638214	102.354314
	1268	0.634000	-24.733047	102.815947
	1269	0.634500	-24.819489	105.277990
	1270	0.635000	-24.919357	104.406017
	1271	0.635500	-25.009155	103.174995
	1272	0.636000	-25.095596	104.252139
	1273	0.636500	-25.194626	104.816357
	1274	0.637000	-25.284424	103.636628
	1275	0.637500	-25.375900	103.277580
	1276	0.638000	-25.471573	103.739213
	1277	0.638500	-25.559692	103.944383
	1278	0.639000	-25.657883	103.482750
	1279	0.639500	-25.746841	104.149554
	1280	0.640000	-25.826569	102.559484
	1281	0.640500	-25.939026	104.713772
	1282	0.641000	-26.027145	104.098261
	1283	0.641500	-26.105194	102.251729
	1284	0.642000	-26.209259	102.918532
	1285	0.642500	-26.294022	103.534043
	1286	0.643000	-26.388016	103.585335
	1287	0.643500	-26.480331	102.918532
	1288	0.644000	-26.567612	102.713362
	1289	0.644500	-26.659927	103.277580
	1290	0.645000	-26.758957	103.174995
	1291	0.645500	-26.837845	103.123702
	1292	0.646000	-26.937714	102.662069
	1293	0.646500	-27.029190	102.764654
	1294	0.647000	-27.117310	102.713362
	1295	0.647500	-27.211304	102.559484
	1296	0.648000	-27.296066	101.841388
	1297	0.648500	-27.397614	102.456899
	1298	0.649000	-27.482376	102.303021
	1299	0.649500	-27.573853	102.046559
	1300	0.650000	-27.671204	101.943973
	1301	0.650500	-27.762680	102.251729
	1302	0.651000	-27.834854	102.097851
	1303	0.651500	-27.947311	103.174995
	1304	0.652000	-28.069839	102.456899
	1305	0.652500	-28.083267	101.584925
	1306	0.653000	-28.219223	101.790096
	1307	0.653500	-28.324127	102.354314
	1308	0.654000	-28.384552	102.969825
	1309	0.654500	-28.516312	101.584925
	1310	0.655000	-28.584290	101.379755
	1311	0.655500	-28.677444	102.097851
	1312	0.656000	-28.783188	103.072410
	1313	0.656500	-28.860397	101.943973
	1314	0.657000	-28.959427	101.841388
	1315	0.657500	-29.048386	101.431048
	1316	0.658000	-29.141541	102.713362
	1317	0.658500	-29.237213	102.354314
	1318	0.659000	-29.343796	102.508192
	1319	0.659500	-29.407578	102.405606
	1320	0.660000	-29.520035	103.021117
	1321	0.660500	-29.592209	101.174585
	1322	0.661000	-29.692078	101.738803
	1323	0.661500	-29.792786	102.251729
	1324	0.662000	-29.866638	102.559484
	1325	0.662500	-29.973221	101.174585
	1326	0.663000	-30.066376	101.584925
	1327	0.663500	-30.148621	102.303021
	1328	0.664000	-30.247650	102.200436
	1329	0.664500	-30.329895	101.277170
	1330	0.665000	-30.427246	101.584925
	1331	0.665500	-30.517044	102.200436
	1332	0.666000	-30.616074	101.379755
	1333	0.666500	-30.705872	101.072000
	1334	0.667000	-30.792313	101.995266
	1335	0.667500	-30.885468	101.277170
	1336	0.668000	-30.978622	100.866830
	1337	0.668500	-31.077652	101.790096
	1338	0.669000	-31.153183	101.841388
	1339	0.669500	-31.262283	101.738803
	1340	0.670000	-31.345367	100.866830
	1341	0.670500	-31.434326	101.431048
	1342	0.671000	-31.534195	102.097851
	1343	0.671500	-31.620636	99.892271
	1344	0.672000	-31.710434	101.225877
	1345	0.672500	-31.807785	100.661659
	1346	0.673000	-31.896744	101.123292
	1347	0.673500	-31.990738	101.379755
	1348	0.674000	-32.081375	99.789686
	1349	0.674500	-32.174530	100.353904
	1350	0.675000	-32.271042	100.969415
	1351	0.675500	-32.360001	100.251319
	1352	0.676000	-32.452316	100.148734
	1353	0.676500	-32.542114	100.046148
	1354	0.677000	-32.635269	100.148734
	1355	0.677500	-32.726746	100.251319
	1356	0.678000	-32.821579	99.840978
	1357	0.678500	-32.896271	99.635808
	1358	0.679000	-33.013763	100.200026
	1359	0.679500	-33.093491	100.353904
	1360	0.680000	-33.177414	99.892271
	1361	0.680500	-33.284836	98.815127
	1362	0.681000	-33.364563	99.174175
	1363	0.681500	-33.458557	100.302611
	1364	0.682000	-33.552551	99.635808
	1365	0.682500	-33.641510	99.687101
	1366	0.683000	-33.735504	98.815127
	1367	0.683500	-33.825302	98.969005
	1368	0.684000	-33.914261	98.507372
	1369	0.684500	-34.009933	99.430638
	1370	0.685000	-34.103088	98.609957
	1371	0.685500	-34.196243	98.866419
	1372	0.686000	-34.286041	99.276760
	1373	0.686500	-34.381714	99.738393
	1374	0.687000	-34.473190	98.866419
	1375	0.687500	-34.562988	99.071590
	1376	0.688000	-34.646912	99.020297
	1377	0.688500	-34.750977	99.174175
	1378	0.689000	-34.831543	98.917712
	1379	0.689500	-34.893646	97.686690
	1380	0.690000	-35.059814	99.994856
	1381	0.690500	-35.113525	98.558664
	1382	0.691000	-35.159683	97.071180
	1383	0.691500	-35.302353	98.250909
	1384	0.692000	-35.390472	98.558664
	1385	0.692500	-35.467682	97.891861
	1386	0.693000	-35.593567	97.122472
	1387	0.693500	-35.654831	96.866009
	1388	0.694000	-35.757217	97.686690
	1389	0.694500	-35.852890	97.378935
	1390	0.695000	-35.931778	97.173765
	1391	0.695500	-36.035004	97.019887
	1392	0.696000	-36.117249	97.122472
	1393	0.696500	-36.212921	95.994036
	1394	0.697000	-36.310272	95.788866
	1395	0.697500	-36.399231	95.634988
	1396	0.698000	-36.489868	96.404376
	1397	0.698500	-36.590576	95.737573
	1398	0.699000	-36.666946	95.122062
	1399	0.699500	-36.767654	95.327232
	1400	0.700000	-36.865845	94.660429
	1401	0.700500	-36.944733	94.506551
	1402	0.701000	-37.040405	94.660429
	1403	0.701500	-37.134399	94.096211
	1404	0.702000	-37.225876	93.634578
	1405	0.702500	-37.321548	93.378115
	1406	0.703000	-37.405472	93.275530
	1407	0.703500	-37.505341	92.813897
	1408	0.704000	-37.589264	91.839338
	1409	0.704500	-37.677383	90.813487
	1410	0.705000	-37.773895	91.018657
	1411	0.705500	-37.863693	90.403146
	1412	0.706000	-37.961884	90.710902
	1413	0.706500	-38.051682	90.351854
	1414	0.707000	-38.150711	88.966954
	1415	0.707500	-38.227081	88.710492
	1416	0.708000	-38.335342	88.454029
	1417	0.708500	-38.414230	87.941103
	1418	0.709000	-38.503189	87.479470
	1419	0.709500	-38.608093	86.812667
	1420	0.710000	-38.689499	84.607086
	1421	0.710500	-38.782654	85.017427
	1422	0.711000	-38.876648	84.863549
	1423	0.711500	-38.960571	84.145453
	1424	0.712000	-39.061279	82.247628
	1425	0.712500	-39.146881	81.478240
	1426	0.713000	-39.241714	81.273070
	1427	0.713500	-39.329834	78.913612
	1428	0.714000	-39.422150	79.170074
	1429	0.714500	-39.516983	78.041638
	1430	0.715000	-39.610138	77.323542
	1431	0.715500	-39.700775	74.912792
	1432	0.716000	-39.790573	73.322722
	1433	0.716500	-39.884567	72.707211
	1434	0.717000	-39.954224	71.424897
	1435	0.717500	-40.076752	69.988705
	1436	0.718000	-40.158157	67.783125
	1437	0.718500	-40.243759	66.244348
	1438	0.719000	-40.348663	64.705571
	1439	0.719500	-40.430908	63.166794
	1440	0.720000	-40.519028	60.602166
	1441	0.720500	-40.617218	58.345293
	1442	0.721000	-40.706177	56.293590
	1443	0.721500	-40.799332	54.395765
	1444	0.722000	-40.887451	51.215626
	1445	0.722500	-40.980606	47.932902
	1446	0.723000	-41.075439	46.035077
	1447	0.723500	-41.169434	43.829497
	1448	0.724000	-41.256714	40.290310
	1449	0.724500	-41.354065	37.674389
	1450	0.725000	-41.441345	34.340372
	1451	0.725500	-41.535339	31.929622
	1452	0.726000	-41.632690	28.236557
	1453	0.726500	-41.706543	23.927982
	1454	0.727000	-41.816483	20.696550
	1455	0.727500	-41.892853	17.618996
	1456	0.728000	-41.978455	13.413006
	1457	0.728500	-42.121124	10.797085
	1458	0.729000	-42.187424	5.924291
	1459	0.729500	-42.218475	0.589865
	1460	0.730000	-42.372894	-3.359663
	1461	0.730500	-42.454300	-7.257898
	1462	0.731000	-42.525635	-11.053548
	1463	0.731500	-42.653198	-16.131512
	1464	0.732000	-42.719498	-20.542672
	1465	0.732500	-42.815170	-24.081859
	1466	0.733000	-42.917557	-29.364994
	1467	0.733500	-42.996445	-32.801595
	1468	0.734000	-43.096313	-37.674389
	1469	0.734500	-43.181915	-41.572624
	1470	0.735000	-43.275070	-45.983785
	1471	0.735500	-43.370743	-49.882020
	1472	0.736000	-43.439560	-54.754813
	1473	0.736500	-43.557892	-57.422027
	1474	0.737000	-43.652725	-61.935773
	1475	0.737500	-43.722382	-66.552103
	1476	0.738000	-43.831482	-69.988705
	1477	0.738500	-43.920441	-71.373605
	1478	0.739000	-44.001007	-75.169254
	1479	0.739500	-44.105911	-79.323952
	1480	0.740000	-44.194031	-81.939873
	1481	0.740500	-44.286346	-83.683820
	1482	0.741000	-44.380341	-86.248448
	1483	0.741500	-44.462585	-88.710492
	1484	0.742000	-44.561615	-91.377705
	1485	0.742500	-44.655609	-92.967774
	1486	0.743000	-44.745407	-94.198796
	1487	0.743500	-44.839401	-96.147914
	1488	0.744000	-44.927521	-97.994446
	1489	0.744500	-45.016479	-98.609957
	1490	0.745000	-45.111313	-99.174175
	1491	0.745500	-45.204468	-100.764244
	1492	0.746000	-45.290909	-103.072410
	1493	0.746500	-45.390778	-102.405606
	1494	0.747000	-45.476379	-102.662069
	1495	0.747500	-45.567856	-103.021117
	1496	0.748000	-45.667725	-104.046969
	1497	0.748500	-45.747452	-106.457719
	1498	0.749000	-45.848160	-105.893501
	1499	0.749500	-45.939636	-104.406017
	1500	0.750000	-46.028595	-106.201256
	1501	0.750500	-46.123428	-107.432278
	1502	0.751000	-46.209869	-107.021937
	1503	0.751500	-46.288757	-106.611597
	1504	0.752000	-46.339111	-107.842618
	1505	0.752500	-46.371841	-108.406837
	1506	0.753000	-46.385269	-108.868470
	1507	0.753500	-46.396179	-108.868470
	1508	0.754000	-46.388626	-108.663299
	1509	0.754500	-46.372681	-109.791736
	1510	0.755000	-46.356735	-110.304662
	1511	0.755500	-46.300507	-109.791736
	1512	0.756000	-46.278687	-109.483980
	1513	0.756500	-46.220779	-110.766295
	1514	0.757000	-46.169586	-110.868880
	1515	0.757500	-46.122589	-110.509832
	1516	0.758000	-46.043701	-110.561124
	1517	0.758500	-45.988312	-110.868880
	1518	0.759000	-45.924530	-111.227928
	1519	0.759500	-45.842285	-112.099901
	1520	0.760000	-45.775146	-110.920172
	1521	0.760500	-45.700455	-111.894731
	1522	0.761000	-45.624084	-112.099901
	1523	0.761500	-45.547714	-111.381805
	1524	0.762000	-45.462952	-111.740853
	1525	0.762500	-45.385742	-112.664120
	1526	0.763000	-45.298462	-112.458949
	1527	0.763500	-45.217896	-112.305072
	1528	0.764000	-45.130615	-113.228338
	1529	0.764500	-45.042496	-112.817997
	1530	0.765000	-44.940109	-112.920582
	1531	0.765500	-44.875488	-113.330923
	1532	0.766000	-44.773941	-114.100311
	1533	0.766500	-44.649734	-113.587386
	1534	0.767000	-44.653931	-112.048609
	1535	0.767500	-44.497833	-113.946434
	1536	0.768000	-44.395447	-114.818407
	1537	0.768500	-44.355164	-113.536093
	1538	0.769000	-44.235992	-113.484801
	1539	0.769500	-44.157104	-114.767115
	1540	0.770000	-44.080734	-115.331333
	1541	0.770500	-43.964081	-114.049019
	1542	0.771000	-43.891068	-113.895141
	1543	0.771500	-43.797073	-115.023578
	1544	0.772000	-43.702240	-115.587796
	1545	0.772500	-43.616638	-114.664530
	1546	0.773000	-43.516769	-114.254189
	1547	0.773500	-43.432007	-114.869700
	1548	0.774000	-43.339691	-115.433918
	1549	0.774500	-43.223038	-115.536503
	1550	0.775000	-43.168488	-114.561944
	1551	0.775500	-43.072815	-114.767115
	1552	0.776000	-42.967072	-116.152014
	1553	0.776500	-42.887344	-115.844259
	1554	0.777000	-42.791672	-114.972285
	1555	0.777500	-42.695160	-114.459359
	1556	0.778000	-42.613754	-114.254189
	1557	0.778500	-42.515564	-115.280040
	1558	0.779000	-42.423248	-115.741673
	1559	0.779500	-42.333450	-114.972285
	1560	0.780000	-42.241135	-114.920992
	1561	0.780500	-42.151337	-115.639088
	1562	0.781000	-42.060699	-115.433918
	1563	0.781500	-41.964188	-115.485211
	1564	0.782000	-41.876907	-115.485211
	1565	0.782500	-41.785431	-115.485211
	1566	0.783000	-41.692276	-115.228748
	1567	0.783500	-41.595764	-115.792966
	1568	0.784000	-41.506805	-115.895551
	1569	0.784500	-41.419525	-114.459359
	1570	0.785000	-41.330566	-114.561944
	1571	0.785500	-41.226501	-116.100721
	1572	0.786000	-41.144257	-115.331333
	1573	0.786500	-41.055298	-114.561944
	1574	0.787000	-40.960464	-116.459769
	1575	0.787500	-40.866470	-116.972695
	1576	0.788000	-40.779190	-114.664530
	1577	0.788500	-40.686874	-115.023578
	1578	0.789000	-40.592041	-116.408477
	1579	0.789500	-40.502243	-116.049429
	1580	0.790000	-40.410767	-115.536503
	1581	0.790500	-40.321808	-115.587796
	1582	0.791000	-40.221100	-115.895551
	1583	0.791500	-40.135498	-115.690381
	1584	0.792000	-40.040665	-115.639088
	1585	0.792500	-39.954224	-115.741673
	1586	0.793000	-39.856873	-115.895551
	1587	0.793500	-39.769592	-115.792966
	1588	0.794000	-39.665527	-115.536503
	1589	0.794500	-39.591675	-115.228748
	1590	0.795000	-39.480896	-116.049429
	1591	0.795500	-39.397812	-115.639088
	1592	0.796000	-39.319763	-115.639088
	1593	0.796500	-39.211502	-115.998136
	1594	0.797000	-39.123383	-116.049429
	1595	0.797500	-39.028549	-116.511062
	1596	0.798000	-38.942947	-116.357184
	1597	0.798500	-38.855667	-116.613647
	1598	0.799000	-38.752441	-115.998136
	1599	0.799500	-38.672714	-116.408477
	1600	0.800000	-38.577881	-115.946844
	1601	0.800500	-38.483887	-116.357184
	1602	0.801000	-38.390732	-115.792966
	1603	0.801500	-38.308487	-116.408477
	1604	0.802000	-38.207779	-116.613647
	1605	0.802500	-38.118820	-116.254599
	1606	0.803000	-38.034058	-116.459769
	1607	0.803500	-37.925797	-116.921402
	1608	0.804000	-37.845230	-116.562354
	1609	0.804500	-37.736969	-116.511062
	1610	0.805000	-37.623672	-117.229158
	1611	0.805500	-37.621994	-114.613237
	1612	0.806000	-37.459183	-116.152014
	1613	0.806500	-37.352600	-117.126573
	1614	0.807000	-37.315674	-116.408477
	1615	0.807500	-37.188950	-116.203307
	1616	0.808000	-37.113419	-115.690381
	1617	0.808500	-37.030334	-116.203307
	1618	0.809000	-36.925430	-116.459769
	1619	0.809500	-36.838989	-115.587796
	1620	0.810000	-36.744156	-115.792966
	1621	0.810500	-36.648483	-115.382625
	1622	0.811000	-36.566238	-115.741673
	1623	0.811500	-36.463013	-116.100721
	1624	0.812000	-36.374054	-116.664940
	1625	0.812500	-36.286774	-115.844259
	1626	0.813000	-36.176834	-116.870110
	1627	0.813500	-36.114731	-116.254599
	1628	0.814000	-36.011505	-116.305892
	1629	0.814500	-35.911636	-116.459769
	1630	0.815000	-35.838623	-115.639088
	1631	0.815500	-35.732880	-115.741673
	1632	0.816000	-35.643921	-115.998136
	1633	0.816500	-35.554962	-115.741673
	1634	0.817000	-35.456772	-115.895551
	1635	0.817500	-35.369492	-115.998136
	1636	0.818000	-35.278015	-115.998136
	1637	0.818500	-35.182343	-115.946844
	1638	0.819000	-35.100098	-115.177455
	1639	0.819500	-34.996872	-114.972285
	1640	0.820000	-34.908752	-116.357184
	1641	0.820500	-34.818115	-115.792966
	1642	0.821000	-34.725800	-115.280040
	1643	0.821500	-34.638519	-115.690381
	1644	0.822000	-34.542847	-116.459769
	1645	0.822500	-34.442978	-116.254599
	1646	0.823000	-34.369965	-115.485211
	1647	0.823500	-34.265900	-115.280040
	1648	0.824000	-34.167709	-116.100721
	1649	0.824500	-34.085464	-116.049429
	1650	0.825000	-33.994827	-116.203307
	1651	0.825500	-33.895798	-117.434328
	1652	0.826000	-33.810196	-116.305892
	1653	0.826500	-33.713684	-116.408477
	1654	0.827000	-33.627243	-116.767525
	1655	0.827500	-33.540802	-116.664940
	1656	0.828000	-33.444290	-115.690381
	1657	0.828500	-33.352814	-115.792966
	1658	0.829000	-33.260498	-116.254599
	1659	0.829500	-33.160629	-115.895551
	1660	0.830000	-33.076706	-115.228748
	1661	0.830500	-32.980194	-115.536503
	1662	0.831000	-32.894592	-115.946844
	1663	0.831500	-32.797241	-115.433918
	1664	0.832000	-32.706604	-115.741673
	1665	0.832500	-32.615967	-115.331333
	1666	0.833000	-32.533722	-115.382625
	1667	0.833500	-32.424622	-116.818817
	1668	0.834000	-32.338181	-114.254189
	1669	0.834500	-32.258453	-115.895551
	1670	0.835000	-32.149353	-117.023988
	1671	0.835500	-32.063751	-116.357184
	1672	0.836000	-31.970596	-116.921402
	1673	0.836500	-31.884995	-115.536503
	1674	0.837000	-31.791000	-116.254599
	1675	0.837500	-31.691132	-116.357184
	1676	0.838000	-31.609726	-115.690381
	1677	0.838500	-31.514053	-115.280040
	1678	0.839000	-31.420898	-115.331333
	1679	0.839500	-31.329422	-115.792966
	1680	0.840000	-31.241302	-115.639088
	1681	0.840500	-31.146469	-115.536503
	1682	0.841000	-31.054993	-115.536503
	1683	0.841500	-30.976944	-115.280040
	1684	0.842000	-30.863647	-115.639088
	1685	0.842500	-30.779724	-115.587796
	1686	0.843000	-30.676498	-116.357184
	1687	0.843500	-30.559845	-115.536503
	1688	0.844000	-30.555649	-113.484801
	1689	0.844500	-30.381088	-115.690381
	1690	0.845000	-30.300522	-115.792966
	1691	0.845500	-30.250168	-115.433918
	1692	0.846000	-30.115051	-115.074870
	1693	0.846500	-30.055466	-115.844259
	1694	0.847000	-29.960632	-115.280040
	1695	0.847500	-29.852371	-115.023578
	1696	0.848000	-29.777679	-115.382625
	1697	0.848500	-29.681168	-115.690381
	1698	0.849000	-29.582138	-115.331333
	1699	0.849500	-29.504929	-115.690381
	1700	0.850000	-29.399185	-115.690381
	1701	0.850500	-29.316101	-115.023578
	1702	0.851000	-29.224625	-115.074870
	1703	0.851500	-29.106293	-115.485211
	1704	0.852000	-29.054260	-114.561944
	1705	0.852500	-28.941803	-114.613237
	1706	0.853000	-28.846970	-115.382625
	1707	0.853500	-28.772278	-114.972285
	1708	0.854000	-28.664856	-114.869700
	1709	0.854500	-28.577576	-115.126163
	1710	0.855000	-28.494492	-115.331333
	1711	0.855500	-28.392944	-115.587796
	1712	0.856000	-28.303146	-114.715822
	1713	0.856500	-28.212509	-115.228748
	1714	0.857000	-28.121033	-115.639088
	1715	0.857500	-28.032074	-114.869700
	1716	0.858000	-27.939758	-114.869700
	1717	0.858500	-27.846603	-114.972285
	1718	0.859000	-27.750092	-115.946844
	1719	0.859500	-27.664490	-115.844259
	1720	0.860000	-27.570496	-114.510652
	1721	0.860500	-27.477341	-115.177455
	1722	0.861000	-27.378311	-115.946844
	1723	0.861500	-27.296906	-115.177455
	1724	0.862000	-27.204590	-113.895141
	1725	0.862500	-27.106400	-114.613237
	1726	0.863000	-27.023315	-114.459359
	1727	0.863500	-26.929321	-114.767115
	1728	0.864000	-26.831131	-115.690381
	1729	0.864500	-26.740494	-114.920992
	1730	0.865000	-26.647339	-113.997726
	1731	0.865500	-26.560898	-114.818407
	1732	0.866000	-26.462708	-117.383036
	1733	0.866500	-26.370392	-114.767115
	1734	0.867000	-26.282272	-113.792556
	1735	0.867500	-26.194153	-114.920992
	1736	0.868000	-26.098480	-115.639088
	1737	0.868500	-26.004486	-115.023578
	1738	0.869000	-25.918045	-114.305482
	1739	0.869500	-25.823212	-114.254189
	1740	0.870000	-25.733414	-115.228748
	1741	0.870500	-25.631866	-115.126163
	1742	0.871000	-25.555496	-113.792556
	1743	0.871500	-25.468216	-114.305482
	1744	0.872000	-25.359116	-115.792966
	1745	0.872500	-25.276031	-115.126163
	1746	0.873000	-25.191269	-113.843849
	1747	0.873500	-25.082169	-113.997726
	1748	0.874000	-25.004959	-115.023578
	1749	0.874500	-24.905930	-114.613237
	1750	0.875000	-24.812775	-114.151604
	1751	0.875500	-24.726334	-113.843849
	1752	0.876000	-24.622269	-115.382625
	1753	0.876500	-24.539185	-113.330923
	1754	0.877000	-24.450226	-113.689971
	1755	0.877500	-24.354553	-114.869700
	1756	0.878000	-24.263077	-114.767115
	1757	0.878500	-24.174957	-114.869700
	1758	0.879000	-24.082642	-114.869700
	1759	0.879500	-23.990326	-114.049019
	1760	0.880000	-23.903046	-114.100311
	1761	0.880500	-23.795624	-114.305482
	1762	0.881000	-23.712540	-114.510652
	1763	0.881500	-23.603439	-114.767115
	1764	0.882000	-23.511963	-114.100311
	1765	0.882500	-23.477554	-112.971875
	1766	0.883000	-23.301315	-114.408067
	1767	0.883500	-23.241730	-114.972285
	1768	0.884000	-23.180466	-113.382215
	1769	0.884500	-23.045349	-113.125753
	1770	0.885000	-22.989960	-113.895141
	1771	0.885500	-22.888412	-114.408067
	1772	0.886000	-22.782669	-113.587386
	1773	0.886500	-22.704620	-113.074460
	1774	0.887000	-22.601395	-114.151604
	1775	0.887500	-22.516632	-114.767115
	1776	0.888000	-22.426834	-113.741263
	1777	0.888500	-22.333679	-113.689971
	1778	0.889000	-22.246399	-114.767115
	1779	0.889500	-22.163315	-114.254189
	1780	0.890000	-22.047501	-113.741263
	1781	0.890500	-21.973648	-114.305482
	1782	0.891000	-21.870422	-114.408067
	1783	0.891500	-21.778946	-114.613237
	1784	0.892000	-21.705933	-114.459359
	1785	0.892500	-21.587601	-113.843849
	1786	0.893000	-21.507034	-113.997726
	1787	0.893500	-21.413040	-113.946434
	1788	0.894000	-21.321564	-114.254189
	1789	0.894500	-21.231766	-113.587386
	1790	0.895000	-21.136932	-114.049019
	1791	0.895500	-21.049652	-114.151604
	1792	0.896000	-20.956497	-113.997726
	1793	0.896500	-20.861664	-114.151604
	1794	0.897000	-20.773544	-114.459359
	1795	0.897500	-20.681229	-114.305482
	1796	0.898000	-20.583038	-113.997726
	1797	0.898500	-20.490723	-115.741673
	1798	0.899000	-20.408478	-113.689971
	1799	0.899500	-20.304413	-113.484801
	1800	0.900000	-20.223846	-113.382215
	1801	0.900500	-20.123978	-113.895141
	1802	0.901000	-20.030823	-113.587386
	1803	0.901500	-19.951935	-113.279630
	1804	0.902000	-19.849548	-113.228338
	1805	0.902500	-19.758072	-115.433918
	1806	0.903000	-19.668274	-114.254189
	1807	0.903500	-19.575958	-112.356364
	1808	0.904000	-19.486160	-113.587386
	1809	0.904500	-19.393005	-114.254189
	1810	0.905000	-19.299850	-114.100311
	1811	0.905500	-19.205856	-113.741263
	1812	0.906000	-19.114380	-113.125753
	1813	0.906500	-19.025421	-112.664120
	1814	0.907000	-18.930588	-113.792556
	1815	0.907500	-18.839951	-113.330923
	1816	0.908000	-18.746796	-112.510242
	1817	0.908500	-18.653641	-113.074460
	1818	0.909000	-18.547058	-113.330923
	1819	0.909500	-18.484955	-111.997316
	1820	0.910000	-18.386765	-112.612827
	1821	0.910500	-18.281860	-113.433508
	1822	0.911000	-18.194580	-113.330923
	1823	0.911500	-18.105621	-112.202486
	1824	0.912000	-18.009109	-112.766705
	1825	0.912500	-17.924347	-113.433508
	1826	0.913000	-17.832031	-113.382215
	1827	0.913500	-17.734680	-112.869290
	1828	0.914000	-17.649918	-112.817997
	1829	0.914500	-17.550049	-112.766705
	1830	0.915000	-17.463608	-112.561534
	1831	0.915500	-17.370453	-112.971875
	1832	0.916000	-17.277298	-112.715412
	1833	0.916500	-17.189178	-113.023167
	1834	0.917000	-17.096863	-112.869290
	1835	0.917500	-17.003708	-113.177045
	1836	0.918000	-16.906357	-113.484801
	1837	0.918500	-16.814041	-113.997726
	1838	0.919000	-16.730118	-113.382215
	1839	0.919500	-16.628571	-113.330923
	1840	0.920000	-16.527023	-113.997726
	1841	0.920500	-16.461563	-111.638268
	1842	0.921000	-16.380157	-112.458949
	1843	0.921500	-16.219025	-112.869290
	1844	0.922000	-16.172028	-113.587386
	1845	0.922500	-16.088104	-112.817997
	1846	0.923000	-15.966415	-112.817997
	1847	0.923500	-15.914383	-113.279630
	1848	0.924000	-15.799408	-113.330923
	1849	0.924500	-15.710449	-112.817997
	1850	0.925000	-15.626526	-113.074460
	1851	0.925500	-15.522461	-113.689971
	1852	0.926000	-15.441055	-113.074460
	1853	0.926500	-15.345383	-112.766705
	1854	0.927000	-15.256424	-113.330923
	1855	0.927500	-15.159912	-113.536093
	1856	0.928000	-15.079346	-111.946024
	1857	0.928500	-14.972763	-112.869290
	1858	0.929000	-14.900589	-112.869290
	1859	0.929500	-14.785614	-112.612827
	1860	0.930000	-14.700012	-112.458949
	1861	0.930500	-14.617767	-112.048609
	1862	0.931000	-14.513702	-112.869290
	1863	0.931500	-14.432297	-112.099901
	1864	0.932000	-14.341660	-112.561534
	1865	0.932500	-14.236755	-111.586976
	1866	0.933000	-14.151993	-112.869290
	1867	0.933500	-14.057999	-112.099901
	1868	0.934000	-13.969040	-111.535683
	1869	0.934500	-13.882599	-111.946024
	1870	0.935000	-13.781052	-112.458949
	1871	0.935500	-13.692932	-113.074460
	1872	0.936000	-13.597260	-112.048609
	1873	0.936500	-13.508301	-111.997316
	1874	0.937000	-13.414307	-111.946024
	1875	0.937500	-13.332901	-112.305072
	1876	0.938000	-13.226318	-111.997316
	1877	0.938500	-13.151627	-112.305072
	1878	0.939000	-13.049240	-111.792146
	1879	0.939500	-12.960281	-111.946024
	1880	0.940000	-12.873001	-111.330513
	1881	0.940500	-12.769775	-112.971875
	1882	0.941000	-12.679138	-112.407657
	1883	0.941500	-12.591858	-111.894731
	1884	0.942000	-12.500381	-111.689561
	1885	0.942500	-12.408905	-112.099901
	1886	0.943000	-12.315750	-112.202486
	1887	0.943500	-12.226791	-111.484391
	1888	0.944000	-12.134476	-111.894731
	1889	0.944500	-12.042160	-112.048609
	1890	0.945000	-11.949844	-112.458949
	1891	0.945500	-11.860886	-111.740853
	1892	0.946000	-11.770248	-112.048609
	1893	0.946500	-11.679611	-112.561534
	1894	0.947000	-11.584778	-111.638268
	1895	0.947500	-11.476517	-111.946024
	1896	0.948000	-11.410217	-111.484391
	1897	0.948500	-11.312027	-111.433098
	1898	0.949000	-11.210480	-112.356364
	1899	0.949500	-11.127396	-112.612827
	1900	0.950000	-11.035080	-111.689561
	1901	0.950500	-10.939407	-112.510242
	1902	0.951000	-10.851288	-112.202486
	1903	0.951500	-10.753937	-111.894731
	1904	0.952000	-10.669174	-112.048609
	1905	0.952500	-10.573502	-111.843438
	1906	0.953000	-10.474472	-112.305072
	1907	0.953500	-10.391388	-111.997316
	1908	0.954000	-10.295715	-111.843438
	1909	0.954500	-10.204239	-111.843438
	1910	0.955000	-10.115280	-111.997316
	1911	0.955500	-10.020447	-112.305072
	1912	0.956000	-9.930649	-112.202486
	1913	0.956500	-9.834976	-111.330513
	1914	0.957000	-9.738464	-112.253779
	1915	0.957500	-9.659576	-111.433098
	1916	0.958000	-9.563904	-111.227928
	1917	0.958500	-9.456482	-112.561534
	1918	0.959000	-9.396896	-109.945614
	1919	0.959500	-9.302063	-110.715002
	1920	0.960000	-9.145966	-111.843438
	1921	0.960500	-9.107361	-111.997316
	1922	0.961000	-9.016724	-110.868880
	1923	0.961500	-8.894196	-111.022757
	1924	0.962000	-8.846359	-111.535683
	1925	0.962500	-8.728027	-111.740853
	1926	0.963000	-8.639908	-110.407247
	1927	0.963500	-8.556824	-111.227928
	1928	0.964000	-8.456955	-110.715002
	1929	0.964500	-8.367996	-111.997316
	1930	0.965000	-8.271484	-111.074050
	1931	0.965500	-8.178329	-111.330513
	1932	0.966000	-8.092728	-111.740853
	1933	0.966500	-7.996216	-111.176635
	1934	0.967000	-7.905579	-110.612417
	1935	0.967500	-7.827530	-110.868880
	1936	0.968000	-7.715073	-111.484391
	1937	0.968500	-7.632828	-111.074050
	1938	0.969000	-7.551422	-110.561124
	1939	0.969500	-7.439804	-110.663709
	1940	0.970000	-7.362595	-111.740853
	1941	0.970500	-7.269440	-111.740853
	1942	0.971000	-7.177963	-110.766295
	1943	0.971500	-7.085648	-110.561124
	1944	0.972000	-6.984940	-111.279220
	1945	0.972500	-6.897659	-111.433098
	1946	0.973000	-6.811218	-110.509832
	1947	0.973500	-6.713028	-110.509832
	1948	0.974000	-6.622391	-110.971465
	1949	0.974500	-6.529236	-111.484391
	1950	0.975000	-6.437759	-110.663709
	1951	0.975500	-6.348801	-110.304662
	1952	0.976000	-6.258163	-110.612417
	1953	0.976500	-6.156616	-111.125343
	1954	0.977000	-6.076889	-110.868880
	1955	0.977500	-5.974503	-110.817587
	1956	0.978000	-5.883865	-110.048199
	1957	0.978500	-5.803299	-110.253369
	1958	0.979000	-5.700912	-111.535683
	1959	0.979500	-5.611954	-111.433098
	1960	0.980000	-5.517960	-110.971465
	1961	0.980500	-5.423126	-110.202076
	1962	0.981000	-5.329132	-110.304662
	1963	0.981500	-5.237656	-111.484391
	1964	0.982000	-5.147018	-110.407247
	1965	0.982500	-5.058060	-109.894321
	1966	0.983000	-4.969101	-110.561124
	1967	0.983500	-4.873428	-110.766295
	1968	0.984000	-4.781113	-110.663709
	1969	0.984500	-4.692993	-110.355954
	1970	0.985000	-4.599838	-110.663709
	1971	0.985500	-4.509201	-111.227928
	1972	0.986000	-4.396744	-110.971465
	1973	0.986500	-4.331284	-110.509832
	1974	0.987000	-4.230576	-110.355954
	1975	0.987500	-4.133224	-111.227928
	1976	0.988000	-4.056015	-110.304662
	1977	0.988500	-3.956146	-109.843028
	1978	0.989000	-3.860474	-109.996906
	1979	0.989500	-3.772354	-110.715002
	1980	0.990000	-3.678360	-110.048199
	1981	0.990500	-3.592758	-109.689151
	1982	0.991000	-3.497925	-110.253369
	1983	0.991500	-3.399734	-110.304662
	1984	0.992000	-3.320007	-109.843028
	1985	0.992500	-3.221817	-109.945614
	1986	0.993000	-3.126984	-110.150784
	1987	0.993500	-3.034668	-110.304662
	1988	0.994000	-2.945709	-109.843028
	1989	0.994500	-2.850037	-109.996906
	1990	0.995000	-2.762756	-109.996906
	1991	0.995500	-2.659531	-110.202076
	1992	0.996000	-2.587357	-111.022757
	1993	0.996500	-2.478256	-110.407247
	1994	0.997000	-2.357407	-111.638268
	1995	0.997500	-2.343140	-108.868470
	1996	0.998000	-2.197113	-109.535273
	1997	0.998500	-2.084656	-111.997316
	1998	0.999000	-2.038498	-109.689151
	1999	0.999500	-1.921005	-108.663299
	2000	1.000000	-1.840439	-109.689151
	2001	1.000500	-1.768265	-110.150784



Hysteresis Filter Version: 5.30.0 - Radiant Technologies, Inc., 2001 - 5/06/21

