»»»»»»»»»»»»»»»»»»»»»»»»»»»»»»»» Hysteresis Filter «««««««««««««««««««««««««««««««««
»»»  Executed Version:	5.30.0
»»»  Vision Version:	5.30.0 (R)
»»»  Vision Compiled:	5/06/21
»»»  Windows Version:	Windows 8, 8.1 or 10
»»»  Processor Information:	x86 (AMD or Intel) - 12 Processors
»»»  Execution Count:	11
»»»»»»»»»»»»»»»»»»»»»»»»»»»»»»»»»»»»»»»»»»««««««««««««««««««««««««««««««««««««««««««

Stored:	11/30/2021 - 17:0:13
Configured:	11/29/21 10:18:03 AM
Executed:	11/30/21 02:38:48 PM

»»»»»»»»»»»»»»»»»»»»»»»»»»»»»»»» Sample Info ««««««««««««««««««««««««««««««««
Sample Name:	Int. Ref. Ferroelectric
Lot Name:	N/A
Wafer Name:	N/A
Die Row/Column:	0/0
Capacitor Number:	0
Sample Area (cm2):	7.85e-05
Sample Thickness (µm):	1.00e-01

»»»»»»»»»»»»»»»»»»»»»»»»»»»»» Hysteresis Filter Info ««««««««««««««««««««««««««««««
Task Name:	Hyst Filter:4134
»»»»»»»»»»»»»»»»»»»»»»»»»»» Hysteresis Filter Plot Info ««««««««««««««««««««««««««««
Plot Enabled
Append Data
Plot Title:	
Plot Subtitle:	
Plot X-Axis label:	Voltage
Plot Y-Axis label:	mA/cm2
Filter Type:	Current Density (mA/cm2) Vs Voltage
Number of Associated Tasks:	1
Max. Number of Data Points:	2001


»»»»»»»»»»»»»»»»»»»»»»»»»»»»»»»»»»»»»» Data «««««««««««««««««««««««««««««««««««««««

---> Task: 1	Hysteresis
---> Trace: 1
Point Number	Time (ms)		Voltage	mA/cm2
	1	0.000500	-0.991974	24.561108
	2	0.002500	-0.936584	-188.665475
	3	0.004500	-0.783844	-207.491085
	4	0.006500	-0.482559	-59.549288
	5	0.008500	-0.212326	159.232414
	6	0.010500	0.126724	234.121609
	7	0.012500	0.441437	127.872724
	8	0.014500	0.801468	-196.792304
	9	0.016500	1.149750	-165.022684
	10	0.018500	1.508942	8.147370
	11	0.020500	1.860580	218.313660
	12	0.022500	2.222290	231.866991
	13	0.024500	2.583160	213.778803
	14	0.026500	2.938156	79.833983
	15	0.028500	3.298187	-51.471910
	16	0.030500	3.659897	-132.740650
	17	0.032500	4.024963	4.278651
	18	0.034500	4.372406	187.671349
	19	0.036500	4.746704	72.711439
	20	0.038500	5.097504	29.438141
	21	0.040500	5.456696	-106.684436
	22	0.042500	5.815048	-95.693172
	23	0.044500	6.172562	2.280239
	24	0.046500	6.545181	-56.877870
	25	0.048500	6.893463	45.143606
	26	0.050500	7.265244	255.950413
	27	0.052500	7.605133	193.717825
	28	0.054500	7.973557	-6.148959
	29	0.056500	8.335266	-188.106900
	30	0.058500	8.695297	-92.772417
	31	0.060500	9.043579	273.218739
	32	0.062500	9.412842	226.025480
	33	0.064500	9.767838	55.110044
	34	0.066500	10.132904	-188.055659
	35	0.068500	10.487900	-220.491417
	36	0.070500	10.845413	-79.424052
	37	0.072500	11.211319	81.806774
	38	0.074500	11.565475	47.398225
	39	0.076500	11.923828	39.507061
	40	0.078500	12.286377	198.508889
	41	0.080500	12.678299	80.038948
	42	0.082500	12.993011	73.531300
	43	0.084500	13.373184	64.666551
	44	0.086500	13.717270	7.404371
	45	0.088500	14.084854	-0.076862
	46	0.090500	14.442368	62.514415
	47	0.092500	14.799881	-53.752149
	48	0.094500	15.156555	59.721763
	49	0.096500	15.514908	55.904284
	50	0.098500	15.887527	131.869547
	51	0.100500	16.230774	22.597424
	52	0.102500	16.596680	-11.349953
	53	0.104500	16.949158	3.023238
	54	0.106500	17.314224	19.727910
	55	0.108500	17.659149	5.636546
	56	0.110500	18.036804	64.205379
	57	0.112500	18.388443	-5.585304
	58	0.114500	18.751831	95.872517
	59	0.116500	19.108505	-45.912226
	60	0.118500	19.479446	-18.216291
	61	0.120500	19.868011	3.176962
	62	0.122500	20.174332	56.083629
	63	0.124500	20.558701	31.180346
	64	0.126500	20.904465	96.897343
	65	0.128500	21.275406	343.035043
	66	0.130500	21.619492	442.878762
	67	0.132500	21.987076	10.632575
	68	0.134500	22.344589	-192.052482
	69	0.136500	22.702942	-172.170848
	70	0.138500	23.064651	-4.227409
	71	0.140500	23.417130	369.987979
	72	0.142500	23.776321	170.812953
	73	0.144500	24.140549	-153.775213
	74	0.146500	24.512329	-155.312453
	75	0.148500	24.851379	-42.017886
	76	0.150500	25.214767	273.808014
	77	0.152500	25.575638	581.512164
	78	0.154500	25.926437	233.583575
	79	0.156500	26.285629	-27.132281
	80	0.158500	26.666641	-218.902936
	81	0.160500	27.007370	-147.293186
	82	0.162500	27.364044	140.708675
	83	0.164500	27.724075	335.963740
	84	0.166500	28.075714	55.494354
	85	0.168500	28.446655	-156.311659
	86	0.170500	28.801651	-196.356753
	87	0.172500	29.161682	108.349779
	88	0.174500	29.519196	223.360931
	89	0.176500	29.875870	344.597903
	90	0.178500	30.235062	214.035010
	91	0.180500	30.594254	204.196676
	92	0.182500	30.956802	-29.924933
	93	0.184500	31.310120	-178.396669
	94	0.186500	31.670990	-163.895374
	95	0.188500	32.027664	323.281512
	96	0.190500	32.390213	135.661405
	97	0.192500	32.753601	276.293218
	98	0.194500	33.118668	244.497977
	99	0.196500	33.415756	237.503536
	100	0.198500	33.850479	191.770655
	101	0.200500	34.183655	372.088873
	102	0.202500	34.556274	376.265041
	103	0.204500	34.891129	466.039841
	104	0.206500	35.268784	340.652321
	105	0.208500	35.621262	427.224538
	106	0.210500	35.988007	1013.809593
	107	0.212500	36.341324	1601.675682
	108	0.214500	36.690445	1943.788381
	109	0.216500	37.061386	2349.158494
	110	0.218500	37.425613	3191.591479
	111	0.220500	37.779770	4399.810656
	112	0.222500	38.138962	5745.407821
	113	0.224500	38.513260	7182.214543
	114	0.226500	38.857346	8611.873100
	115	0.228500	39.226608	9788.143311
	116	0.230500	39.579926	10368.630649
	117	0.232500	39.933243	10255.003013
	118	0.234500	40.339432	9381.107855
	119	0.236500	40.639877	8111.245366
	120	0.238500	41.030121	6127.821821
	121	0.240500	41.379242	3882.452629
	122	0.242500	41.755219	2186.928462
	123	0.244500	42.088394	1218.083131
	124	0.246500	42.451782	899.951372
	125	0.248500	42.810974	735.799790
	126	0.250500	43.172684	492.454743
	127	0.252500	43.416901	265.660644
	128	0.254500	43.413544	297.865816
	129	0.256500	43.263321	181.112459
	130	0.258500	43.036728	320.924412
	131	0.260500	42.749710	381.312312
	132	0.262500	42.422409	456.560196
	133	0.264500	42.111893	140.298745
	134	0.266500	41.761932	-106.940643
	135	0.268500	41.415329	-288.591136
	136	0.270500	41.057816	51.036359
	137	0.272500	40.722122	254.490035
	138	0.274500	40.353699	389.152234
	139	0.276500	39.997864	57.467145
	140	0.278500	39.628601	-141.041744
	141	0.280500	39.271927	-233.404230
	142	0.282500	38.919449	128.077689
	143	0.284500	38.551865	177.807394
	144	0.286500	38.202744	95.232000
	145	0.288500	37.843552	-215.674732
	146	0.290500	37.494431	52.035564
	147	0.292500	37.117615	89.441731
	148	0.294500	36.771011	31.462173
	149	0.296500	36.400070	-137.659817
	150	0.298500	36.045914	-49.575981
	151	0.300500	35.681686	95.898138
	152	0.302500	35.322495	167.328543
	153	0.304500	34.969177	-68.586512
	154	0.306500	34.604950	-63.078070
	155	0.308500	34.244919	-9.402783
	156	0.310500	33.894958	-50.523945
	157	0.312500	33.576050	-339.396909
	158	0.314500	33.154755	-100.484236
	159	0.316500	32.816544	246.598871
	160	0.318500	32.451477	255.233034
	161	0.320500	32.103195	162.844927
	162	0.322500	31.733093	-254.361932
	163	0.324500	31.380615	-217.775627
	164	0.326500	31.021423	65.076481
	165	0.328500	30.663071	174.451087
	166	0.330500	30.308075	246.393906
	167	0.332500	29.936295	44.836158
	168	0.334500	29.583817	-205.528950
	169	0.336500	29.224625	-265.378816
	170	0.338500	28.877182	-216.059042
	171	0.340500	28.502045	167.840956
	172	0.342500	28.145370	194.845134
	173	0.344500	27.783661	-193.743446
	174	0.346500	27.425308	-254.105725
	175	0.348500	27.069473	-127.514035
	176	0.350500	26.691818	150.342044
	177	0.352500	26.365356	194.358342
	178	0.354500	25.983505	-2.152136
	179	0.356500	25.632706	-186.877108
	180	0.358500	25.260086	24.032181
	181	0.360500	24.923553	-23.929698
	182	0.362500	24.556808	-170.992298
	183	0.364500	24.200134	-54.418286
	184	0.366500	23.835068	-116.599633
	185	0.368500	23.476715	-208.142258
	186	0.370500	23.116684	67.126134
	187	0.372500	22.759171	157.848898
	188	0.374500	22.398300	220.798865
	189	0.376500	22.039948	107.094367
	190	0.378500	21.684113	-278.906526
	191	0.380500	21.319885	-153.723972
	192	0.382500	20.963211	-13.297124
	193	0.384500	20.605698	232.840576
	194	0.386500	20.251541	64.692171
	195	0.388500	19.873886	-238.502742
	196	0.390500	19.514694	-311.982801
	197	0.392500	19.163895	-156.670348
	198	0.394500	18.808060	160.334102
	199	0.396500	18.447189	307.345461
	200	0.398500	18.077087	-118.982354
	201	0.400500	17.726288	-270.989741
	202	0.402500	17.366257	-41.300507
	203	0.404500	17.007065	112.141637
	204	0.406500	16.638641	253.388347
	205	0.408500	16.290359	-59.696142
	206	0.410500	15.922775	-229.945441
	207	0.412500	15.569458	-133.278683
	208	0.414500	15.206909	59.926728
	209	0.416500	14.850235	-58.312627
	210	0.418500	14.495239	-147.984943
	211	0.420500	14.125137	-120.109663
	212	0.422500	13.770981	-128.974412
	213	0.424500	13.410950	88.135077
	214	0.426500	13.084488	34.177963
	215	0.428500	12.678299	87.725147
	216	0.430500	12.341766	-46.732087
	217	0.432500	11.971664	-103.302509
	218	0.434500	11.626740	-307.652909
	219	0.436500	11.255798	10.606954
	220	0.438500	10.894928	5.943994
	221	0.440500	10.535736	106.915022
	222	0.442500	10.173187	-135.558922
	223	0.444500	9.820709	51.061979
	224	0.446500	9.452286	-182.342251
	225	0.448500	9.098129	-153.928937
	226	0.450500	8.741455	-148.446115
	227	0.452500	8.383942	74.658609
	228	0.454500	8.014679	41.684817
	229	0.456500	7.663040	106.658816
	230	0.458500	7.299652	-22.418079
	231	0.460500	6.944656	151.187526
	232	0.462500	6.586304	-124.798244
	233	0.464500	6.227112	-313.596902
	234	0.466500	5.893936	-394.763159
	235	0.468500	5.488586	63.872310
	236	0.470500	5.144501	247.726180
	237	0.472500	4.781113	53.598425
	238	0.474500	4.432831	-80.525740
	239	0.476500	4.061050	-54.213321
	240	0.478500	3.708572	161.999445
	241	0.480500	3.345184	251.056866
	242	0.482500	2.989349	8.275474
	243	0.484500	2.625122	-440.496041
	244	0.486500	2.265091	-428.479950
	245	0.488500	1.902542	-141.272330
	246	0.490500	1.547546	348.184796
	247	0.492500	1.196747	120.340249
	248	0.494500	0.820770	-103.891784
	249	0.496500	0.465775	-414.516690
	250	0.498500	0.104065	-47.116397
	251	0.500500	-0.252609	297.045955
	252	0.502500	-0.613480	260.408408
	253	0.504500	-0.935745	-59.209350
	254	0.506500	-1.325150	-278.240389
	255	0.508500	-1.679306	-115.292979
	256	0.510500	-2.044373	152.084249
	257	0.512500	-2.404404	59.183729
	258	0.514500	-2.755203	-72.480853
	259	0.516500	-3.123627	-400.758394
	260	0.518500	-3.475266	-267.838400
	261	0.520500	-3.831940	18.574980
	262	0.522500	-4.187775	159.591103
	263	0.524500	-4.564590	112.628430
	264	0.526500	-4.909515	76.323952
	265	0.528500	-5.277939	-191.078897
	266	0.530500	-5.633774	53.444701
	267	0.532500	-5.992966	28.669521
	268	0.534500	-6.354675	182.137286
	269	0.536500	-6.710510	-227.332133
	270	0.538500	-7.071381	-1.921550
	271	0.540500	-7.426376	-27.747177
	272	0.542500	-7.849350	176.193292
	273	0.544500	-8.129654	-120.365870
	274	0.546500	-8.510666	-310.138113
	275	0.548500	-8.865662	-196.203029
	276	0.550500	-9.245834	142.399639
	277	0.552500	-9.580688	-0.128103
	278	0.554500	-9.944916	-54.110838
	279	0.556500	-10.303268	-351.592344
	280	0.558500	-10.666656	-170.403023
	281	0.560500	-11.025009	70.610544
	282	0.562500	-11.382523	173.554364
	283	0.564500	-11.744232	142.220294
	284	0.566500	-12.095032	-96.231206
	285	0.568500	-12.456741	-251.876728
	286	0.570500	-12.807541	-146.089014
	287	0.572500	-13.176804	19.317979
	288	0.574500	-13.536835	-8.480439
	289	0.576500	-13.896027	49.166050
	290	0.578500	-14.254379	114.678083
	291	0.580500	-14.603500	33.076275
	292	0.582500	-14.981995	-67.484824
	293	0.584500	-15.330276	-228.894994
	294	0.586500	-15.694504	-350.080725
	295	0.588500	-16.032715	-200.481680
	296	0.590500	-16.416245	-40.147577
	297	0.592500	-16.769562	50.959497
	298	0.594500	-17.127075	135.533302
	299	0.596500	-17.482910	85.701114
	300	0.598500	-17.847977	50.011532
	301	0.600500	-18.202972	-36.458202
	302	0.602500	-18.561325	-213.420114
	303	0.604500	-18.924713	-188.388727
	304	0.606500	-19.282227	-119.879077
	305	0.608500	-19.648972	-28.464555
	306	0.610500	-20.000610	41.556714
	307	0.612500	-20.366516	-50.754531
	308	0.614500	-20.720673	-185.058041
	309	0.616500	-21.082382	-135.379578
	310	0.618500	-21.427307	-264.430852
	311	0.620500	-21.797409	-29.771209
	312	0.622500	-22.154083	169.506299
	313	0.624500	-22.517471	242.730151
	314	0.626500	-22.885056	-54.443907
	315	0.628500	-23.234177	-118.367458
	316	0.630500	-23.603439	-105.787713
	317	0.632500	-23.955078	9.274680
	318	0.634500	-24.310074	69.995648
	319	0.636500	-24.661713	38.226028
	320	0.638500	-25.036850	-311.649732
	321	0.640500	-25.391846	-470.779663
	322	0.642500	-25.751038	-292.613580
	323	0.644500	-26.110229	80.961292
	324	0.646500	-26.481171	241.525980
	325	0.648500	-26.835327	-36.432581
	326	0.650500	-27.192841	-207.014949
	327	0.652500	-27.550354	-141.349192
	328	0.654500	-27.906189	151.418112
	329	0.656500	-28.268738	-21.521356
	330	0.658500	-28.578415	-304.194119
	331	0.660500	-29.008102	-268.273951
	332	0.662500	-29.337921	90.210351
	333	0.664500	-29.700470	157.695174
	334	0.666500	-30.051270	189.234209
	335	0.668500	-30.426407	-256.078516
	336	0.670500	-30.779724	-368.373877
	337	0.672500	-31.139755	-97.742825
	338	0.674500	-31.503983	120.878283
	339	0.676500	-31.849747	66.562480
	340	0.678500	-32.219009	-112.551568
	341	0.680500	-32.573166	-541.313346
	342	0.682500	-32.929840	-325.305545
	343	0.684500	-33.278122	75.222263
	344	0.686500	-33.659973	131.972030
	345	0.688500	-34.011612	-27.439729
	346	0.690500	-34.369965	-429.146088
	347	0.692500	-34.730835	-364.633261
	348	0.694500	-35.093384	-160.744033
	349	0.696500	-35.451736	-187.056453
	350	0.698500	-35.795822	-344.008628
	351	0.700500	-36.162567	-405.549458
	352	0.702500	-36.518402	-423.304577
	353	0.704500	-36.893539	-327.790749
	354	0.706500	-37.232590	-707.873269
	355	0.708500	-37.599335	-878.609360
	356	0.710500	-37.962723	-920.704108
	357	0.712500	-38.318558	-1128.769503
	358	0.714500	-38.671036	-1286.336574
	359	0.716500	-39.033585	-1537.495923
	360	0.718500	-39.391098	-1874.996903
	361	0.720500	-39.748611	-2489.226653
	362	0.722500	-40.112000	-3290.102925
	363	0.724500	-40.461121	-4282.032473
	364	0.726500	-40.829544	-4739.156323
	365	0.728500	-41.182861	-5635.674526
	366	0.730500	-41.546249	-6428.403427
	367	0.732500	-41.890335	-7489.278176
	368	0.734500	-42.307434	-8447.465313
	369	0.736500	-42.612915	-9115.191004
	370	0.738500	-42.980499	-8981.528011
	371	0.740500	-43.336334	-8372.576118
	372	0.742500	-43.704758	-6980.682416
	373	0.744500	-44.062271	-5571.776595
	374	0.746500	-44.417267	-4015.039554
	375	0.748500	-44.778976	-2568.522602
	376	0.750500	-45.135651	-1599.164857
	377	0.752500	-45.391617	-1041.710494
	378	0.754500	-45.375671	-736.491548
	379	0.756500	-45.243912	-497.194566
	380	0.758500	-45.012283	-306.935530
	381	0.760500	-44.735336	-278.368492
	382	0.762500	-44.412231	-486.100819
	383	0.764500	-44.087448	-382.106552
	384	0.766500	-43.745880	-221.618726
	385	0.768500	-43.400955	-288.642377
	386	0.770500	-43.050995	-195.460030
	387	0.772500	-42.659912	-160.846516
	388	0.774500	-42.357788	-5.380339
	389	0.776500	-41.973419	185.211765
	390	0.778500	-41.633530	115.677289
	391	0.780500	-41.249161	-78.834777
	392	0.782500	-40.913467	-136.609370
	393	0.784500	-40.546722	-166.406199
	394	0.786500	-40.194244	-31.769621
	395	0.788500	-39.834213	46.245295
	396	0.790500	-39.475861	0.281827
	397	0.792500	-39.126740	-182.880285
	398	0.794500	-38.756638	-67.536065
	399	0.796500	-38.399124	-99.203203
	400	0.798500	-38.042450	-58.953143
	401	0.800500	-37.694168	80.141431
	402	0.802500	-37.320709	93.336071
	403	0.804500	-36.964874	138.428437
	404	0.806500	-36.606522	87.494561
	405	0.808500	-36.244812	-199.456853
	406	0.810500	-35.876389	-253.849519
	407	0.812500	-35.502930	-85.034977
	408	0.814500	-35.184021	154.313247
	409	0.816500	-34.802170	128.461999
	410	0.818500	-34.454727	72.839542
	411	0.820500	-34.085464	-5.559684
	412	0.822500	-33.744736	-14.706260
	413	0.824500	-33.377151	94.489001
	414	0.826500	-33.012085	-104.276094
	415	0.828500	-32.656250	61.617692
	416	0.830500	-32.295380	-0.025621
	417	0.832500	-31.936188	-16.422844
	418	0.834500	-31.577835	4.611719
	419	0.836500	-31.218643	-79.808362
	420	0.838500	-30.850220	61.617692
	421	0.840500	-30.507813	179.780185
	422	0.842500	-30.137711	81.934877
	423	0.844500	-29.779358	92.003797
	424	0.846500	-29.426041	57.748972
	425	0.848500	-29.059296	18.882428
	426	0.850500	-28.659821	20.496530
	427	0.852500	-28.352661	96.205586
	428	0.854500	-27.972488	72.378370
	429	0.856500	-27.620850	-54.956320
	430	0.858500	-27.265015	27.516591
	431	0.860500	-26.897430	-58.158903
	432	0.862500	-26.540756	15.218673
	433	0.864500	-26.181564	150.265182
	434	0.866500	-25.819855	-5.662166
	435	0.868500	-25.455627	101.816511
	436	0.870500	-25.098114	-110.245708
	437	0.872500	-24.738922	-20.137840
	438	0.874500	-24.376373	104.609163
	439	0.876500	-24.020538	248.212973
	440	0.878500	-23.663864	176.577602
	441	0.880500	-23.297119	-23.929698
	442	0.882500	-22.942963	-246.957561
	443	0.884500	-22.585449	72.942025
	444	0.886500	-22.213669	285.977829
	445	0.888500	-21.911545	204.504124
	446	0.890500	-21.485214	-126.771035
	447	0.892500	-21.154556	-344.187973
	448	0.894500	-20.781937	48.781740
	449	0.896500	-20.442886	213.727562
	450	0.898500	-20.066910	210.371255
	451	0.900500	-19.711075	-133.099339
	452	0.902500	-19.348526	-200.481680
	453	0.904500	-18.989334	107.632401
	454	0.906500	-18.634338	245.702148
	455	0.908500	-18.269272	200.097370
	456	0.910500	-17.918472	126.412346
	457	0.912500	-17.558441	-128.077689
	458	0.914500	-17.197571	-138.684643
	459	0.916500	-16.825790	-7.968026
	460	0.918500	-16.475830	-80.705085
	461	0.920500	-16.118317	91.798832
	462	0.922500	-15.757446	82.472911
	463	0.924500	-15.401611	191.668172
	464	0.926500	-15.028992	202.198264
	465	0.928500	-14.699173	193.282274
	466	0.930500	-14.309769	-67.254238
	467	0.932500	-13.963165	-37.021857
	468	0.934500	-13.588867	-79.065363
	469	0.936500	-13.256531	-71.020475
	470	0.938500	-12.888107	-11.785504
	471	0.940500	-12.529755	-18.805566
	472	0.942500	-12.165527	-27.388488
	473	0.944500	-11.812210	100.381754
	474	0.946500	-11.442947	51.702496
	475	0.948500	-11.090469	87.059009
	476	0.950500	-10.728760	185.570454
	477	0.952500	-10.372925	-47.756914
	478	0.954500	-10.018768	-5.585304
	479	0.956500	-9.648666	39.122751
	480	0.958500	-9.293671	7.429992
	481	0.960500	-8.928604	128.795068
	482	0.962500	-8.568573	79.526535
	483	0.964500	-8.195114	-47.577569
	484	0.966500	-7.855225	-9.197818
	485	0.968500	-7.488480	-36.227616
	486	0.970500	-7.139359	100.663581
	487	0.972500	-6.779327	182.598458
	488	0.974500	-6.410065	-199.738681
	489	0.976500	-6.056747	-204.504124
	490	0.978500	-5.693359	-89.851661
	491	0.980500	-5.338364	77.271916
	492	0.982500	-4.969101	458.712332
	493	0.984500	-4.621658	123.107281
	494	0.986500	-4.254913	-295.764922
	495	0.988500	-3.898239	-93.694761
	496	0.990500	-3.539886	91.414522
	497	0.992500	-3.187408	205.170261
	498	0.994500	-2.818146	296.100404
	499	0.996500	-2.453918	16.433313
	500	0.998500	-2.096405	167.502283
	501	1.000500	-1.744766	379.630093

---> Task: 1	Hysteresis
---> Trace: 2
Point Number	Time (ms)		Voltage	mA/cm2
	1	0.000500	-1.002045	159.375911
	2	0.002500	-0.931549	9.391949
	3	0.004500	-0.764542	-29.209569
	4	0.006500	-0.493469	-74.124659
	5	0.008500	-0.214844	-1.998412
	6	0.010500	0.113297	-72.711439
	7	0.012500	0.448990	-146.832014
	8	0.014500	0.798950	-81.832394
	9	0.016500	1.143036	99.254444
	10	0.018500	1.501389	131.920788
	11	0.020500	1.860580	-59.414315
	12	0.022500	2.218933	-116.369047
	13	0.024500	2.578964	-172.068366
	14	0.026500	2.922211	148.727943
	15	0.028500	3.304062	235.556366
	16	0.030500	3.653183	44.195642
	17	0.032500	4.015732	-124.593279
	18	0.034500	4.374084	-158.386932
	19	0.036500	4.749222	44.400607
	20	0.038500	5.111771	428.684916
	21	0.040500	5.450821	280.802455
	22	0.042500	5.816727	-100.176788
	23	0.044500	6.175079	-94.975794
	24	0.046500	6.547699	110.091984
	25	0.048500	6.887589	151.418112
	26	0.050500	7.256012	142.630225
	27	0.052500	7.616882	-149.752769
	28	0.054500	7.980270	-345.187178
	29	0.056500	8.328552	-186.492798
	30	0.058500	8.689423	107.196850
	31	0.060500	9.050293	212.830839
	32	0.062500	9.406128	237.349812
	33	0.064500	9.766159	8.634163
	34	0.066500	10.116119	78.347984
	35	0.068500	10.488739	217.775627
	36	0.070500	10.845413	317.235036
	37	0.072500	11.201248	116.804598
	38	0.074500	11.562119	-22.597424
	39	0.076500	11.966629	-128.205792
	40	0.078500	12.268753	22.187493
	41	0.080500	12.646408	321.616169
	42	0.082500	12.993851	508.775105
	43	0.084500	13.361435	238.758949
	44	0.086500	13.716431	-49.371016
	45	0.088500	14.073105	-90.902109
	46	0.090500	14.437332	281.186765
	47	0.092500	14.794006	314.442384
	48	0.094500	15.160751	193.794687
	49	0.096500	15.509872	-116.471529
	50	0.098500	15.875778	-205.733915
	51	0.100500	16.231613	-187.107694
	52	0.102500	16.597519	-91.670728
	53	0.104500	16.950836	-20.291564
	54	0.106500	17.310867	125.643726
	55	0.108500	17.665863	-336.399291
	56	0.110500	18.026733	-298.583194
	57	0.112500	18.394318	6.174580
	58	0.114500	18.696442	285.491036
	59	0.116500	19.129486	483.180064
	60	0.118500	19.464340	382.516483
	61	0.120500	19.833603	228.510684
	62	0.122500	20.174332	335.092638
	63	0.124500	20.556183	-51.933082
	64	0.126500	20.905304	-354.564341
	65	0.128500	21.269531	-177.013153
	66	0.130500	21.625366	172.145228
	67	0.132500	21.983719	317.465622
	68	0.134500	22.336197	95.821276
	69	0.136500	22.702103	-120.775800
	70	0.138500	23.062134	-183.853870
	71	0.140500	23.416290	17.524533
	72	0.142500	23.783035	178.985944
	73	0.144500	24.132996	281.109903
	74	0.146500	24.504776	335.656292
	75	0.148500	24.857254	525.479777
	76	0.150500	25.205536	348.261658
	77	0.152500	25.561371	7.096923
	78	0.154500	25.919724	-461.786811
	79	0.156500	26.296539	-619.661330
	80	0.158500	26.647339	-354.077548
	81	0.160500	27.022476	-4.944788
	82	0.162500	27.354813	226.512272
	83	0.164500	27.727432	373.036838
	84	0.166500	28.079071	424.278162
	85	0.168500	28.442459	489.841436
	86	0.170500	28.790741	149.086632
	87	0.172500	29.165878	-261.561338
	88	0.174500	29.512482	-463.503395
	89	0.176500	29.874191	-395.224331
	90	0.178500	30.231705	-211.985357
	91	0.180500	30.585861	253.490829
	92	0.182500	30.952606	497.348290
	93	0.184500	31.315155	609.489927
	94	0.186500	31.666794	347.902969
	95	0.188500	32.030182	-12.938434
	96	0.190500	32.397766	-332.530571
	97	0.192500	32.749405	-191.258241
	98	0.194500	33.111115	46.040330
	99	0.196500	33.462753	141.528537
	100	0.198500	33.823624	432.681739
	101	0.200500	34.182816	519.074611
	102	0.202500	34.539490	460.505778
	103	0.204500	34.902878	457.175092
	104	0.206500	35.256195	369.475566
	105	0.208500	35.631332	380.082520
	106	0.210500	35.972061	792.780143
	107	0.212500	36.337967	928.646513
	108	0.214500	36.699677	1307.652965
	109	0.216500	37.056351	1705.951776
	110	0.218500	37.399597	2192.334422
	111	0.220500	37.776413	3132.305268
	112	0.222500	38.133087	4527.504035
	113	0.224500	38.494797	6213.932866
	114	0.226500	38.847275	7655.325686
	115	0.228500	39.210663	9065.743127
	116	0.230500	39.620209	10316.774429
	117	0.232500	39.907227	10909.662167
	118	0.234500	40.297470	10648.126450
	119	0.236500	40.651627	9289.872677
	120	0.238500	41.021729	7282.903744
	121	0.240500	41.373367	5293.151896
	122	0.242500	41.738434	3613.717506
	123	0.244500	42.090912	1892.495815
	124	0.246500	42.446747	1039.558359
	125	0.248500	42.811813	610.053582
	126	0.250500	43.168488	504.624558
	127	0.252500	43.419418	278.547837
	128	0.254500	43.408508	306.218152
	129	0.256500	43.280106	316.978830
	130	0.258500	43.024979	789.039526
	131	0.260500	42.753067	822.576972
	132	0.262500	42.437515	696.036523
	133	0.264500	42.105179	296.226093
	134	0.266500	41.759415	445.671415
	135	0.268500	41.406937	454.817991
	136	0.270500	41.080475	410.263660
	137	0.272500	40.709534	174.374225
	138	0.274500	40.359573	-159.949793
	139	0.276500	39.985275	-341.215976
	140	0.278500	39.651260	-261.048925
	141	0.280500	39.283676	-287.438206
	142	0.282500	38.928680	-140.503710
	143	0.284500	38.569489	-360.918265
	144	0.286500	38.211136	-416.105171
	145	0.288500	37.851105	-251.723004
	146	0.290500	37.496948	-92.746796
	147	0.292500	37.135239	7.148165
	148	0.294500	36.771851	-47.859397
	149	0.296500	36.420212	37.201201
	150	0.298500	36.055984	252.952795
	151	0.300500	35.695953	126.284243
	152	0.302500	35.339279	495.477981
	153	0.304500	34.991837	474.084729
	154	0.306500	34.568863	564.192597
	155	0.308500	34.270096	554.405504
	156	0.310500	33.897476	520.919299
	157	0.312500	33.544159	160.180378
	158	0.314500	33.165665	154.723177
	159	0.316500	32.814865	-229.484269
	160	0.318500	32.462387	-245.138494
	161	0.320500	32.096481	-231.047129
	162	0.322500	31.744003	-87.315216
	163	0.324500	31.368866	-281.904143
	164	0.326500	31.028976	-39.199613
	165	0.328500	30.658035	-178.755358
	166	0.330500	30.299683	-362.942297
	167	0.332500	29.940491	-416.207653
	168	0.334500	29.583817	-109.144020
	169	0.336500	29.219589	-153.237179
	170	0.338500	28.861237	-271.783982
	171	0.340500	28.502045	-472.163179
	172	0.342500	28.136978	-542.312551
	173	0.344500	27.822266	-217.263213
	174	0.346500	27.401810	303.937913
	175	0.348500	27.073669	171.248504
	176	0.350500	26.699371	237.862226
	177	0.352500	26.360321	98.562687
	178	0.354500	25.981827	-169.198851
	179	0.356500	25.619278	-192.923584
	180	0.358500	25.265961	-150.418906
	181	0.360500	24.906769	-135.277095
	182	0.362500	24.543381	-141.656640
	183	0.364500	24.177475	-198.560130
	184	0.366500	23.828354	122.671729
	185	0.368500	23.470001	135.789508
	186	0.370500	23.110809	-309.933148
	187	0.372500	22.738190	-689.221427
	188	0.374500	22.399139	-580.564200
	189	0.376500	22.026520	-79.372811
	190	0.378500	21.675720	327.380818
	191	0.380500	21.314011	109.374606
	192	0.382500	20.965729	105.172817
	193	0.384500	20.628357	363.429090
	194	0.386500	20.228043	346.903763
	195	0.388500	19.883118	259.076134
	196	0.390500	19.520569	70.713027
	197	0.392500	19.173965	-86.136665
	198	0.394500	18.798828	-126.489208
	199	0.396500	18.447189	262.970474
	200	0.398500	18.086319	9.044094
	201	0.400500	17.737198	-307.396702
	202	0.402500	17.367935	-572.391209
	203	0.404500	17.005386	-292.382994
	204	0.406500	16.644516	266.531746
	205	0.408500	16.286163	610.514754
	206	0.410500	15.930328	425.584816
	207	0.412500	15.557709	360.585196
	208	0.414500	15.211945	245.138494
	209	0.416500	14.855270	306.756185
	210	0.418500	14.494400	38.379752
	211	0.420500	14.136047	-136.711852
	212	0.422500	13.816299	-163.946616
	213	0.424500	13.395004	-294.483888
	214	0.426500	13.062668	-268.120227
	215	0.428500	12.692566	-4.688581
	216	0.430500	12.339249	308.549632
	217	0.432500	11.975861	413.056312
	218	0.434500	11.615829	162.639962
	219	0.436500	11.258316	-368.322636
	220	0.438500	10.900803	-770.387684
	221	0.440500	10.550003	-699.700278
	222	0.442500	10.175705	-344.597903
	223	0.444500	9.819870	-335.886878
	224	0.446500	9.459000	-148.087426
	225	0.448500	9.104843	-205.067778
	226	0.450500	8.740616	-15.244294
	227	0.452500	8.381424	134.534096
	228	0.454500	8.020554	137.685437
	229	0.456500	7.662201	189.772243
	230	0.458500	7.309723	549.845026
	231	0.460500	6.901855	621.839086
	232	0.462500	6.604767	632.855971
	233	0.464500	6.212845	242.832634
	234	0.466500	5.864563	-131.229030
	235	0.468500	5.491943	-192.949205
	236	0.470500	5.148697	-334.862052
	237	0.472500	4.780273	-433.296635
	238	0.474500	4.421082	-352.463446
	239	0.476500	4.064407	-272.040189
	240	0.478500	3.704376	-191.924379
	241	0.480500	3.346024	-311.162939
	242	0.482500	2.985992	-177.833015
	243	0.484500	2.625122	-18.728704
	244	0.486500	2.266769	408.572696
	245	0.488500	1.917648	412.390175
	246	0.490500	1.539154	110.373812
	247	0.492500	1.187515	-267.915262
	248	0.494500	0.827484	-23.929698
	249	0.496500	0.467453	-123.542832
	250	0.498500	0.088959	-58.927522
	251	0.500500	-0.260162	-230.457854
	252	0.502500	-0.604248	-312.495214
	253	0.504500	-0.967636	-268.120227
	254	0.506500	-1.310043	-169.941851
	255	0.508500	-1.691055	-194.153376
	256	0.510500	-2.040176	184.981179
	257	0.512500	-2.402725	518.844025
	258	0.514500	-2.757721	869.488405
	259	0.516500	-3.122787	575.081378
	260	0.518500	-3.473587	53.649666
	261	0.520500	-3.840332	-348.671588
	262	0.522500	-4.192810	-533.524664
	263	0.524500	-4.562073	-314.826694
	264	0.526500	-4.915390	-277.856079
	265	0.528500	-5.272903	-476.518692
	266	0.530500	-5.635452	-447.387999
	267	0.532500	-5.989609	-298.993125
	268	0.534500	-6.357193	29.079451
	269	0.536500	-6.686172	162.716824
	270	0.538500	-7.084808	-103.046302
	271	0.540500	-7.425537	-294.663233
	272	0.542500	-7.798996	-170.633609
	273	0.544500	-8.148956	64.256620
	274	0.546500	-8.514023	313.366316
	275	0.548500	-8.869858	67.177376
	276	0.550500	-9.239960	-281.596695
	277	0.552500	-9.595795	-366.093639
	278	0.554500	-9.940720	-252.363520
	279	0.556500	-10.320892	92.516210
	280	0.558500	-10.670013	599.036697
	281	0.560500	-11.024170	568.445627
	282	0.562500	-11.386719	141.528537
	283	0.564500	-11.754303	-143.731914
	284	0.566500	-12.095871	-318.592931
	285	0.568500	-12.463455	-190.182174
	286	0.570500	-12.819290	-218.518626
	287	0.572500	-13.177643	-513.771134
	288	0.574500	-13.532639	-503.036077
	289	0.576500	-13.862457	43.708849
	290	0.578500	-14.263611	182.700940
	291	0.580500	-14.604340	239.296983
	292	0.582500	-14.973602	-75.017298
	293	0.584500	-15.320206	-372.345080
	294	0.586500	-15.693665	-277.266804
	295	0.588500	-16.045303	129.000033
	296	0.590500	-16.404495	236.273744
	297	0.592500	-16.765366	242.473945
	298	0.594500	-17.127075	230.509096
	299	0.596500	-17.483749	226.179204
	300	0.598500	-17.845459	-46.194053
	301	0.600500	-18.200455	-220.824485
	302	0.602500	-18.545380	-429.760984
	303	0.604500	-18.924713	-246.496389
	304	0.606500	-19.278030	106.530712
	305	0.608500	-19.639740	130.819100
	306	0.610500	-19.996414	101.560304
	307	0.612500	-20.365677	172.683262
	308	0.614500	-20.702209	230.662820
	309	0.616500	-21.079025	-65.460791
	310	0.618500	-21.429825	-140.811158
	311	0.620500	-21.794052	-127.155345
	312	0.622500	-22.163315	-247.674939
	313	0.624500	-22.505722	-479.285723
	314	0.626500	-22.872467	-600.650799
	315	0.628500	-23.228302	-462.709155
	316	0.630500	-23.593369	-127.565276
	317	0.632500	-23.945847	141.938467
	318	0.634500	-24.308395	-99.126341
	319	0.636500	-24.665070	13.015296
	320	0.638500	-25.025101	186.646522
	321	0.640500	-25.396881	128.385137
	322	0.642500	-25.740128	255.822310
	323	0.644500	-26.111069	142.527742
	324	0.646500	-26.464386	-309.958768
	325	0.648500	-26.821060	14.859984
	326	0.650500	-27.169342	111.219294
	327	0.652500	-27.592316	202.659436
	328	0.654500	-27.881012	233.916644
	329	0.656500	-28.268738	-168.302128
	330	0.658500	-28.616180	-162.230031
	331	0.660500	-28.995514	-3.638134
	332	0.662500	-29.341278	-29.361279
	333	0.664500	-29.707184	-57.723351
	334	0.666500	-30.061340	-30.232381
	335	0.668500	-30.422211	24.647077
	336	0.670500	-30.786438	-30.104278
	337	0.672500	-31.137238	-119.879077
	338	0.674500	-31.495590	57.902696
	339	0.676500	-31.853104	-300.632847
	340	0.678500	-32.216492	-291.204444
	341	0.680500	-32.572327	-276.472563
	342	0.682500	-32.937393	-472.265662
	343	0.684500	-33.296585	-506.238659
	344	0.686500	-33.655777	-624.939186
	345	0.688500	-34.027557	-628.346734
	346	0.690500	-34.363251	-163.664789
	347	0.692500	-34.747620	175.142845
	348	0.694500	-35.081635	-209.577015
	349	0.696500	-35.452576	-419.025926
	350	0.698500	-35.781555	-792.190867
	351	0.700500	-36.181030	-667.110796
	352	0.702500	-36.529312	-382.055311
	353	0.704500	-36.885986	165.330132
	354	0.706500	-37.246017	-18.523739
	355	0.708500	-37.609406	-248.520421
	356	0.710500	-37.970276	-1054.751411
	357	0.712500	-38.319397	-1699.623472
	358	0.714500	-38.682785	-2122.799946
	359	0.716500	-39.037781	-2258.384489
	360	0.718500	-39.402847	-2907.586442
	361	0.720500	-39.750290	-3330.532329
	362	0.722500	-40.106125	-3644.564783
	363	0.724500	-40.470352	-4091.286644
	364	0.726500	-40.832062	-5196.920690
	365	0.728500	-41.176147	-6610.925023
	366	0.730500	-41.540375	-8350.567969
	367	0.732500	-41.902924	-9115.242246
	368	0.734500	-42.268829	-9311.598999
	369	0.736500	-42.630539	-9132.894882
	370	0.738500	-42.978821	-8234.480750
	371	0.740500	-43.341370	-6463.042562
	372	0.742500	-43.703079	-4837.488424
	373	0.744500	-44.059753	-3456.457883
	374	0.746500	-44.404678	-2528.298162
	375	0.748500	-44.780655	-1935.487286
	376	0.750500	-45.134811	-1437.985272
	377	0.752500	-45.382385	-1077.425697
	378	0.754500	-45.379028	-837.718784
	379	0.756500	-45.239716	-237.119226
	380	0.758500	-45.010605	385.590962
	381	0.760500	-44.726944	460.659502
	382	0.762500	-44.408875	306.576841
	383	0.764500	-44.084930	-125.361899
	384	0.766500	-43.742523	-351.592344
	385	0.768500	-43.353119	-577.771548
	386	0.770500	-43.057709	-427.275779
	387	0.772500	-42.685089	-474.007867
	388	0.774500	-42.337646	-325.536131
	389	0.776500	-41.972580	-387.410029
	390	0.778500	-41.620941	-299.915469
	391	0.780500	-41.262589	-68.022857
	392	0.782500	-40.903397	98.767652
	393	0.784500	-40.550079	-143.911258
	394	0.786500	-40.184174	19.804772
	395	0.788500	-39.825821	49.985911
	396	0.790500	-39.472504	152.519801
	397	0.792500	-39.116669	225.026274
	398	0.794500	-38.744888	193.589722
	399	0.796500	-38.404999	474.827728
	400	0.798500	-38.032379	565.960422
	401	0.800500	-37.683258	280.392524
	402	0.802500	-37.329102	18.600601
	403	0.804500	-36.967392	-366.862258
	404	0.806500	-36.636734	92.003797
	405	0.808500	-36.226349	330.583401
	406	0.810500	-35.897369	129.973618
	407	0.812500	-35.525589	-314.826694
	408	0.814500	-35.186539	-633.445246
	409	0.816500	-34.803009	-478.286517
	410	0.818500	-34.455566	119.597250
	411	0.820500	-34.090500	118.905492
	412	0.822500	-33.735504	327.713887
	413	0.824500	-33.377151	401.860083
	414	0.826500	-33.024673	241.372256
	415	0.828500	-32.662964	4.662960
	416	0.830500	-32.297058	-371.807046
	417	0.832500	-31.939545	-456.380851
	418	0.834500	-31.572800	-403.115495
	419	0.836500	-31.222839	-392.303576
	420	0.838500	-30.855255	-245.855872
	421	0.840500	-30.496063	430.862672
	422	0.842500	-30.125961	840.793263
	423	0.844500	-29.824677	861.187310
	424	0.846500	-29.418488	505.444419
	425	0.848500	-29.066010	5.098512
	426	0.850500	-28.696747	-231.790129
	427	0.852500	-28.345108	-64.128517
	428	0.854500	-27.989273	-196.638580
	429	0.856500	-27.623367	-276.190736
	430	0.858500	-27.267532	-416.796929
	431	0.860500	-26.907501	-288.796101
	432	0.862500	-26.547470	-48.346189
	433	0.864500	-26.176529	144.654257
	434	0.866500	-25.824890	23.058596
	435	0.868500	-25.459824	300.940295
	436	0.870500	-25.104828	98.255239
	437	0.872500	-24.733887	98.127135
	438	0.874500	-24.383926	-42.069127
	439	0.876500	-24.025574	-101.483442
	440	0.878500	-23.659668	-76.913227
	441	0.880500	-23.308029	37.354925
	442	0.882500	-22.913589	-185.467972
	443	0.884500	-22.592163	52.624840
	444	0.886500	-22.215347	-56.749766
	445	0.888500	-21.872101	-232.046335
	446	0.890500	-21.496964	-198.970061
	447	0.892500	-21.154556	0.102483
	448	0.894500	-20.792847	220.542658
	449	0.896500	-20.437012	321.539307
	450	0.898500	-20.070267	368.963153
	451	0.900500	-19.711075	585.662711
	452	0.902500	-19.354401	704.158273
	453	0.904500	-18.991013	718.915774
	454	0.906500	-18.631821	295.483094
	455	0.908500	-18.265076	51.728116
	456	0.910500	-17.919312	-382.747069
	457	0.912500	-17.545013	-532.269252
	458	0.914500	-17.194214	-167.507888
	459	0.916500	-16.831665	26.594247
	460	0.918500	-16.476669	-336.527395
	461	0.920500	-16.105728	-640.490928
	462	0.922500	-15.730591	-853.501111
	463	0.924500	-15.410004	-557.198156
	464	0.926500	-15.039902	-151.981767
	465	0.928500	-14.679031	145.832808
	466	0.930500	-14.318161	230.919026
	467	0.932500	-13.968201	225.641170
	468	0.934500	-13.595581	316.876347
	469	0.936500	-13.246460	139.991297
	470	0.938500	-12.881393	247.316250
	471	0.940500	-12.525558	484.307373
	472	0.942500	-12.171402	514.155444
	473	0.944500	-11.811371	647.203541
	474	0.946500	-11.452179	680.689747
	475	0.948500	-11.082077	136.071336
	476	0.950500	-10.743027	-375.778249
	477	0.952500	-10.369568	-580.871648
	478	0.954500	-10.015411	-549.435095
	479	0.956500	-9.654541	-46.527122
	480	0.958500	-9.295349	370.961564
	481	0.960500	-8.914337	227.306513
	482	0.962500	-8.573608	-225.308101
	483	0.964500	-8.214417	-280.443766
	484	0.966500	-7.856064	-269.964915
	485	0.968500	-7.496033	-269.606226
	486	0.970500	-7.130966	-638.031344
	487	0.972500	-6.775131	-581.384061
	488	0.974500	-6.415939	-278.547837
	489	0.976500	-6.051712	466.270427
	490	0.978500	-5.692520	521.816022
	491	0.980500	-5.332489	625.400358
	492	0.982500	-4.974976	877.072120
	493	0.984500	-4.614105	960.826064
	494	0.986500	-4.254913	724.372975
	495	0.988500	-3.894882	442.673797
	496	0.990500	-3.533173	150.137079
	497	0.992500	-3.179855	74.146196
	498	0.994500	-2.818985	-141.187299
	499	0.996500	-2.453918	-400.799354
	500	0.998500	-2.142563	-342.593262
	501	1.000500	-1.716232	-316.292095

---> Task: 1	Hysteresis
---> Trace: 3
Point Number	Time (ms)		Voltage	mA/cm2
	1	0.000500	-0.991135	-190.918307
	2	0.002500	-0.940781	-47.886418
	3	0.004500	-0.760345	9.892807
	4	0.006500	-0.490952	100.381568
	5	0.008500	-0.211487	64.999619
	6	0.010500	0.120010	-50.139635
	7	0.012500	0.460739	138.428437
	8	0.014500	0.798111	239.117638
	9	0.016500	1.140518	46.399019
	10	0.018500	1.496353	-311.214181
	11	0.020500	1.866455	-254.054484
	12	0.022500	2.223969	-138.479678
	13	0.024500	2.585678	347.749245
	14	0.026500	2.924728	344.187973
	15	0.028500	3.298187	230.688440
	16	0.030500	3.651505	-15.167432
	17	0.032500	4.006500	-26.414902
	18	0.034500	4.368210	-89.646696
	19	0.036500	4.741669	207.604224
	20	0.038500	5.099182	132.715029
	21	0.040500	5.459213	26.466144
	22	0.042500	5.815048	-60.259797
	23	0.044500	6.178436	-229.023097
	24	0.046500	6.536789	-99.177582
	25	0.048500	6.890945	47.885017
	26	0.050500	7.255173	23.032975
	27	0.052500	7.619400	7.558095
	28	0.054500	7.997894	155.209970
	29	0.056500	8.317642	82.754738
	30	0.058500	8.703690	272.808808
	31	0.060500	9.046097	-28.490176
	32	0.062500	9.406967	-258.205031
	33	0.064500	9.765320	44.631193
	34	0.066500	10.125351	342.573871
	35	0.068500	10.482025	213.548217
	36	0.070500	10.849609	94.284036
	37	0.072500	11.205444	-361.123230
	38	0.074500	11.555405	-117.419494
	39	0.076500	11.924667	163.408582
	40	0.078500	12.283020	121.211352
	41	0.080500	12.643890	102.226441
	42	0.082500	12.993011	128.461999
	43	0.084500	13.363953	-14.680639
	44	0.086500	13.718109	143.501328
	45	0.088500	14.078140	-0.947964
	46	0.090500	14.437332	-88.954938
	47	0.092500	14.803238	-107.914228
	48	0.094500	15.190125	-178.140463
	49	0.096500	15.496445	15.269915
	50	0.098500	15.884171	224.667585
	51	0.100500	16.230774	228.766891
	52	0.102500	16.602554	-66.998031
	53	0.104500	16.947479	-101.201615
	54	0.106500	17.316742	-76.298331
	55	0.108500	17.673416	238.630845
	56	0.110500	18.025894	166.175613
	57	0.112500	18.387604	101.509063
	58	0.114500	18.744278	44.093159
	59	0.116500	19.104309	18.600601
	60	0.118500	19.471893	-118.751768
	61	0.120500	19.835281	-3.919961
	62	0.122500	20.177689	7.814302
	63	0.124500	20.547791	167.969060
	64	0.126500	20.905304	160.077896
	65	0.128500	21.263657	30.847277
	66	0.130500	21.617813	151.494974
	67	0.132500	22.006378	161.948204
	68	0.134500	22.331161	65.127723
	69	0.136500	22.695389	-76.913227
	70	0.138500	23.059616	-2.946376
	71	0.140500	23.411255	-26.261178
	72	0.142500	23.776321	-10.017679
	73	0.144500	24.130478	-87.084630
	74	0.146500	24.497223	-68.407167
	75	0.148500	24.850540	56.134870
	76	0.150500	25.216446	303.246155
	77	0.152500	25.568924	201.967678
	78	0.154500	25.932312	109.041537
	79	0.156500	26.281433	76.682641
	80	0.158500	26.628876	45.784123
	81	0.160500	27.007370	92.541831
	82	0.162500	27.358170	49.524740
	83	0.164500	27.715683	-194.665789
	84	0.166500	28.080750	66.921169
	85	0.168500	28.450012	311.496008
	86	0.170500	28.744583	224.257654
	87	0.172500	29.186020	66.664962
	88	0.174500	29.509125	-62.591277
	89	0.176500	29.878387	-55.801802
	90	0.178500	30.216599	256.206619
	91	0.180500	30.591736	178.371048
	92	0.182500	30.951767	69.483235
	93	0.184500	31.305084	113.883842
	94	0.186500	31.670990	172.990709
	95	0.188500	32.020950	63.283035
	96	0.190500	32.391891	162.511859
	97	0.192500	32.747726	112.705292
	98	0.194500	33.106918	-138.351575
	99	0.196500	33.475342	-92.464969
	100	0.198500	33.833694	55.929905
	101	0.200500	34.184494	274.935323
	102	0.202500	34.544525	473.828522
	103	0.204500	34.907913	434.936357
	104	0.206500	35.259552	225.461825
	105	0.208500	35.636368	435.320667
	106	0.210500	35.972061	465.450566
	107	0.212500	36.350555	753.554909
	108	0.214500	36.703873	1044.580008
	109	0.216500	37.079010	1399.067487
	110	0.218500	37.411346	2075.657928
	111	0.220500	37.785645	2840.742135
	112	0.222500	38.140640	3863.109029
	113	0.224500	38.501511	5161.487315
	114	0.226500	38.847275	6514.642575
	115	0.228500	39.219894	8122.364733
	116	0.230500	39.573212	9560.350006
	117	0.232500	39.943314	10471.113296
	118	0.234500	40.298309	10926.571804
	119	0.236500	40.654144	10218.314225
	120	0.238500	41.024246	8938.485299
	121	0.240500	41.381760	6885.860346
	122	0.242500	41.739273	4775.512042
	123	0.244500	42.098465	2870.052172
	124	0.246500	42.473602	1736.081674
	125	0.248500	42.810135	1173.426317
	126	0.250500	43.176880	949.476111
	127	0.252500	43.419418	629.499664
	128	0.254500	43.401794	434.757013
	129	0.256500	43.272552	293.202855
	130	0.258500	43.038406	286.515863
	131	0.260500	42.749710	212.139081
	132	0.262500	42.436676	196.587339
	133	0.264500	42.118607	160.795274
	134	0.266500	41.760254	187.210177
	135	0.268500	41.418686	96.794861
	136	0.270500	41.063690	-47.398225
	137	0.272500	40.710373	143.731914
	138	0.274500	40.340271	252.440382
	139	0.276500	39.990311	117.906286
	140	0.278500	39.634476	103.994267
	141	0.280500	39.267731	-34.946583
	142	0.282500	38.917770	-80.397637
	143	0.284500	38.560257	51.548772
	144	0.286500	38.248062	99.613134
	145	0.288500	37.825928	86.239148
	146	0.290500	37.490234	74.274299
	147	0.292500	37.120132	22.674286
	148	0.294500	36.771011	-232.661231
	149	0.296500	36.400070	-195.306306
	150	0.298500	36.049271	-88.314422
	151	0.300500	35.691757	-27.132281
	152	0.302500	35.320816	156.695968
	153	0.304500	34.970856	186.877108
	154	0.306500	34.608307	34.254825
	155	0.308500	34.251633	96.769240
	156	0.310500	33.887405	62.975587
	157	0.312500	33.548355	-33.025033
	158	0.314500	33.169022	-155.081867
	159	0.316500	32.819901	-151.341250
	160	0.318500	32.451477	2.228998
	161	0.320500	32.093964	25.620662
	162	0.322500	31.729736	16.141017
	163	0.324500	31.373062	-73.428817
	164	0.326500	31.030655	-63.590483
	165	0.328500	30.654678	82.139842
	166	0.330500	30.298843	173.733709
	167	0.332500	29.933777	51.061979
	168	0.334500	29.596405	-18.498118
	169	0.336500	29.221268	-114.985531
	170	0.338500	28.872147	-155.133108
	171	0.340500	28.510437	-57.723351
	172	0.342500	28.153763	-140.119400
	173	0.344500	27.784500	-269.221916
	174	0.346500	27.428665	-135.328336
	175	0.348500	27.066116	-81.191878
	176	0.350500	26.701050	48.602396
	177	0.352500	26.356964	132.791891
	178	0.354500	25.986023	76.938848
	179	0.356500	25.641098	-64.564068
	180	0.358500	25.270996	158.233208
	181	0.360500	24.929428	241.756566
	182	0.362500	24.508133	201.737092
	183	0.364500	24.208527	-114.370635
	184	0.366500	23.835068	-231.969473
	185	0.368500	23.482590	-317.926794
	186	0.370500	23.110809	50.831393
	187	0.372500	22.754135	14.450053
	188	0.374500	22.401657	-64.231000
	189	0.376500	22.033234	43.452643
	190	0.378500	21.681595	39.455819
	191	0.380500	21.310654	-132.510064
	192	0.382500	20.964890	5.200994
	193	0.384500	20.601501	-31.001001
	194	0.386500	20.238113	27.029798
	195	0.388500	19.880600	-139.017712
	196	0.390500	19.529800	-186.518419
	197	0.392500	19.159698	14.398812
	198	0.394500	18.797989	80.653844
	199	0.396500	18.438797	-0.640517
	200	0.398500	18.081284	-116.727736
	201	0.400500	17.759857	-198.713854
	202	0.402500	17.344437	50.626428
	203	0.404500	17.016296	-14.245088
	204	0.406500	16.643677	-126.719794
	205	0.408500	16.310501	-85.316804
	206	0.410500	15.922775	97.230412
	207	0.412500	15.568619	70.226234
	208	0.414500	15.206909	32.205172
	209	0.416500	14.842682	-42.632781
	210	0.418500	14.487686	-48.781740
	211	0.420500	14.132690	45.246089
	212	0.422500	13.770981	-210.550600
	213	0.424500	13.405075	-234.864608
	214	0.426500	13.053436	-34.562273
	215	0.428500	12.685852	12.861572
	216	0.430500	12.335892	129.486825
	217	0.432500	11.979218	159.053069
	218	0.434500	11.620026	-99.613134
	219	0.436500	11.254959	-87.904491
	220	0.438500	10.906677	-184.673731
	221	0.440500	10.550003	-206.271949
	222	0.442500	10.169830	-148.548598
	223	0.444500	9.813156	-84.778770
	224	0.446500	9.455643	-120.007181
	225	0.448500	9.107361	76.990089
	226	0.450500	8.733902	182.162906
	227	0.452500	8.384781	81.832394
	228	0.454500	8.025589	23.007354
	229	0.456500	7.668076	-103.200026
	230	0.458500	7.308884	-135.891991
	231	0.460500	6.941299	30.232381
	232	0.462500	6.580429	23.929698
	233	0.464500	6.219559	39.968233
	234	0.466500	5.863724	-116.420288
	235	0.468500	5.496979	-212.933321
	236	0.470500	5.142822	-56.314215
	237	0.472500	4.781113	-78.091778
	238	0.474500	4.426956	-131.331513
	239	0.476500	4.061890	-43.683229
	240	0.478500	3.753052	-21.367632
	241	0.480500	3.334274	42.940229
	242	0.482500	2.996063	71.942819
	243	0.484500	2.622604	137.557334
	244	0.486500	2.274323	-47.475087
	245	0.488500	1.907578	-212.267184
	246	0.490500	1.554260	-110.245708
	247	0.492500	1.195908	-162.358135
	248	0.494500	0.829163	-22.418079
	249	0.496500	0.471649	24.903283
	250	0.498500	0.109100	50.882635
	251	0.500500	-0.246735	110.015122
	252	0.502500	-0.606766	-34.869721
	253	0.504500	-0.950851	-190.182174
	254	0.506500	-1.323471	32.768827
	255	0.508500	-1.680984	-1.614102
	256	0.510500	-2.042694	-1.819067
	257	0.512500	-2.402725	-161.256446
	258	0.514500	-2.756042	-108.913434
	259	0.516500	-3.139572	42.479058
	260	0.518500	-3.455124	-6.712613
	261	0.520500	-3.839493	-61.617692
	262	0.522500	-4.191132	76.016504
	263	0.524500	-4.566269	-45.502296
	264	0.526500	-4.904480	-174.861018
	265	0.528500	-5.279617	-97.127929
	266	0.530500	-5.626221	-214.982974
	267	0.532500	-5.988770	38.584717
	268	0.534500	-6.346283	177.909877
	269	0.536500	-6.708832	134.072924
	270	0.538500	-7.076416	19.061772
	271	0.540500	-7.432251	-244.728563
	272	0.542500	-7.792282	-325.612993
	273	0.544500	-8.142242	-130.306687
	274	0.546500	-8.514023	-37.508649
	275	0.548500	-8.862305	-157.259623
	276	0.550500	-9.224014	191.821896
	277	0.552500	-9.581528	253.977622
	278	0.554500	-9.971771	222.720414
	279	0.556500	-10.306625	-214.880492
	280	0.558500	-10.660782	-241.987152
	281	0.560500	-11.019135	-257.692618
	282	0.562500	-11.376648	161.794480
	283	0.564500	-11.746750	78.911639
	284	0.566500	-12.095032	38.584717
	285	0.568500	-12.462616	-95.693172
	286	0.570500	-12.819290	-140.221883
	287	0.572500	-13.186874	-173.426261
	288	0.574500	-13.531799	-53.905873
	289	0.576500	-13.898544	-17.063361
	290	0.578500	-14.252701	-47.782535
	291	0.580500	-14.613571	-28.823245
	292	0.582500	-14.970245	20.470909
	293	0.584500	-15.328598	84.830012
	294	0.586500	-15.688629	-37.483028
	295	0.588500	-16.047821	-260.869580
	296	0.590500	-16.407013	-307.319840
	297	0.592500	-16.727600	-244.523598
	298	0.594500	-17.138824	41.018680
	299	0.596500	-17.476196	36.022651
	300	0.598500	-17.847977	29.438141
	301	0.600500	-18.199615	82.011739
	302	0.602500	-18.569717	23.161078
	303	0.604500	-18.923874	-6.148959
	304	0.606500	-19.286423	131.203410
	305	0.608500	-19.644775	-16.807154
	306	0.610500	-20.000610	-140.273124
	307	0.612500	-20.369873	-202.121402
	308	0.614500	-20.723190	-262.458061
	309	0.616500	-21.082382	-109.451468
	310	0.618500	-21.445770	-133.534890
	311	0.620500	-21.811676	-121.800627
	312	0.622500	-22.155762	-70.277476
	313	0.624500	-22.519150	-23.827216
	314	0.626500	-22.875824	38.072304
	315	0.628500	-23.240891	-90.210351
	316	0.630500	-23.585815	-168.199646
	317	0.632500	-23.929062	53.393459
	318	0.634500	-24.317627	9.710231
	319	0.636500	-24.667587	53.009150
	320	0.638500	-25.030975	13.143400
	321	0.640500	-25.386810	-140.990503
	322	0.642500	-25.753555	-193.871549
	323	0.644500	-26.108551	-180.574425
	324	0.646500	-26.472778	-256.667791
	325	0.648500	-26.822739	-37.995442
	326	0.650500	-27.179413	20.573392
	327	0.652500	-27.540283	-20.214702
	328	0.654500	-27.902832	-102.457027
	329	0.656500	-28.264542	-79.449673
	330	0.658500	-28.610306	-39.148371
	331	0.660500	-28.986282	-55.468733
	332	0.662500	-29.342957	-17.063361
	333	0.664500	-29.703827	-16.807154
	334	0.666500	-30.055466	-118.751768
	335	0.668500	-30.415497	-96.999826
	336	0.670500	-30.740280	-162.332514
	337	0.672500	-31.146469	-182.239768
	338	0.674500	-31.494751	-135.174612
	339	0.676500	-31.857300	-131.100927
	340	0.678500	-32.212296	-192.052482
	341	0.680500	-32.567291	-193.154170
	342	0.682500	-32.929840	-307.755391
	343	0.684500	-33.288193	-217.160731
	344	0.686500	-33.644867	-157.362106
	345	0.688500	-33.999863	-113.038361
	346	0.690500	-34.369965	-330.993332
	347	0.692500	-34.722443	-542.594379
	348	0.694500	-35.083313	-539.007486
	349	0.696500	-35.439987	-418.795340
	350	0.698500	-35.799179	-407.419766
	351	0.700500	-36.160049	-448.464067
	352	0.702500	-36.524277	-680.433540
	353	0.704500	-36.876755	-587.917330
	354	0.706500	-37.229233	-661.884181
	355	0.708500	-37.653885	-994.184166
	356	0.710500	-37.939224	-1438.267100
	357	0.712500	-38.316040	-1814.788348
	358	0.714500	-38.670197	-2142.630338
	359	0.716500	-39.048691	-2133.201934
	360	0.718500	-39.386063	-2876.124269
	361	0.720500	-39.749451	-3574.953444
	362	0.722500	-40.106964	-4636.981123
	363	0.724500	-40.469513	-5494.632782
	364	0.726500	-40.823669	-6206.707839
	365	0.728500	-41.182861	-7100.049080
	366	0.730500	-41.542892	-8182.265841
	367	0.732500	-41.905441	-8770.311274
	368	0.734500	-42.262955	-9096.052370
	369	0.736500	-42.615433	-8491.097300
	370	0.738500	-42.990570	-7520.612246
	371	0.740500	-43.340530	-6089.928862
	372	0.742500	-43.704758	-4089.134509
	373	0.744500	-44.069824	-2340.191262
	374	0.746500	-44.425659	-1501.191445
	375	0.748500	-44.793243	-991.622100
	376	0.750500	-45.139847	-776.920953
	377	0.752500	-45.389099	-560.580083
	378	0.754500	-45.368118	-346.109522
	379	0.756500	-45.254822	-128.333896
	380	0.758500	-45.013123	-220.517037
	381	0.760500	-44.733658	-81.191878
	382	0.762500	-44.422302	-349.465829
	383	0.764500	-44.100876	-204.222296
	384	0.766500	-43.752594	-482.001513
	385	0.768500	-43.410187	-349.645174
	386	0.770500	-43.050995	-268.068986
	387	0.772500	-42.695999	-112.244120
	388	0.774500	-42.344360	21.342011
	389	0.776500	-41.979294	235.556366
	390	0.778500	-41.633530	-124.977589
	391	0.780500	-41.273499	-4.022444
	392	0.782500	-40.909271	-135.072130
	393	0.784500	-40.535812	-171.197263
	394	0.786500	-40.195923	-61.694554
	395	0.788500	-39.826660	103.481854
	396	0.790500	-39.477539	14.962467
	397	0.792500	-39.131775	-3.305065
	398	0.794500	-38.755798	-154.159523
	399	0.796500	-38.402481	-81.473705
	400	0.798500	-38.050003	29.899312
	401	0.800500	-37.687454	86.623458
	402	0.802500	-37.319031	-37.739235
	403	0.804500	-36.971588	-46.527122
	404	0.806500	-36.606522	-86.751561
	405	0.808500	-36.252365	285.952208
	406	0.810500	-35.889816	191.463207
	407	0.812500	-35.539017	-48.371810
	408	0.814500	-35.167236	-125.361899
	409	0.816500	-34.809723	-86.136665
	410	0.818500	-34.448853	-62.924346
	411	0.820500	-34.093857	-72.737059
	412	0.822500	-33.723755	-98.460204
	413	0.824500	-33.316727	84.138254
	414	0.826500	-33.023834	258.358755
	415	0.828500	-32.644501	-46.834570
	416	0.830500	-32.294540	9.838334
	417	0.832500	-31.921921	-19.497324
	418	0.834500	-31.575317	-50.011532
	419	0.836500	-31.209412	-73.761886
	420	0.838500	-30.847702	81.627429
	421	0.840500	-30.500259	-20.009737
	422	0.842500	-30.129318	179.088427
	423	0.844500	-29.770966	-116.266564
	424	0.846500	-29.416809	-155.696763
	425	0.848500	-29.056778	85.291184
	426	0.850500	-28.679962	211.088634
	427	0.852500	-28.344269	69.124546
	428	0.854500	-27.970810	144.474913
	429	0.856500	-27.620850	52.291771
	430	0.858500	-27.259140	82.652255
	431	0.860500	-26.903305	143.193880
	432	0.862500	-26.529007	-50.626428
	433	0.864500	-26.174011	-146.140256
	434	0.866500	-25.822372	-37.559890
	435	0.868500	-25.463181	181.573631
	436	0.870500	-25.113220	114.473118
	437	0.872500	-24.737244	31.692759
	438	0.874500	-24.390640	-95.206380
	439	0.876500	-24.022217	-21.470115
	440	0.878500	-23.671417	127.898344
	441	0.880500	-23.299637	196.126167
	442	0.882500	-22.952194	97.127929
	443	0.884500	-22.586288	71.891577
	444	0.886500	-22.226257	-12.554124
	445	0.888500	-21.881332	-119.366664
	446	0.890500	-21.507034	-80.167051
	447	0.892500	-21.157074	62.232588
	448	0.894500	-20.792847	-84.112633
	449	0.896500	-20.433655	-16.397224
	450	0.898500	-20.062714	124.951968
	451	0.900500	-19.763947	265.968092
	452	0.902500	-19.350204	247.034422
	453	0.904500	-18.994370	126.847897
	454	0.906500	-18.632660	-80.986912
	455	0.908500	-18.292770	99.151962
	456	0.910500	-17.919312	83.728323
	457	0.912500	-17.559280	-53.393459
	458	0.914500	-17.202606	-20.522150
	459	0.916500	-16.835022	-20.419668
	460	0.918500	-16.485062	-64.077276
	461	0.920500	-16.116638	44.733676
	462	0.922500	-15.764160	-46.475881
	463	0.924500	-15.404129	-56.391077
	464	0.926500	-15.047455	58.415109
	465	0.928500	-14.679031	19.420462
	466	0.930500	-14.321518	170.736091
	467	0.932500	-13.958969	133.355545
	468	0.934500	-13.600616	48.499913
	469	0.936500	-13.248978	33.870515
	470	0.938500	-12.846985	-77.938054
	471	0.940500	-12.544022	37.585511
	472	0.942500	-12.155457	-14.245088
	473	0.944500	-11.811371	-123.901521
	474	0.946500	-11.429520	-41.069921
	475	0.948500	-11.094666	38.328510
	476	0.950500	-10.728760	109.605192
	477	0.952500	-10.371246	364.940709
	478	0.954500	-10.013733	72.378370
	479	0.956500	-9.656219	-72.122163
	480	0.958500	-9.291153	-4.842305
	481	0.960500	-8.931961	-33.691170
	482	0.962500	-8.572769	4.970408
	483	0.964500	-8.211060	144.090603
	484	0.966500	-7.864456	2.818273
	485	0.968500	-7.485123	90.031006
	486	0.970500	-7.133484	59.363074
	487	0.972500	-6.771774	-58.876281
	488	0.974500	-6.416779	-8.096129
	489	0.976500	-6.036606	45.374192
	490	0.978500	-5.673218	-63.154932
	491	0.980500	-5.345078	95.667552
	492	0.982500	-4.971619	0.435551
	493	0.984500	-4.620819	59.414315
	494	0.986500	-4.257431	116.907080
	495	0.988500	-3.900757	-46.219674
	496	0.990500	-3.537369	-39.045889
	497	0.992500	-3.183212	103.123164
	498	0.994500	-2.814789	57.584666
	499	0.996500	-2.461472	88.894610
	500	0.998500	-2.103958	-75.861904
	501	1.000500	-1.737213	-247.709088

---> Task: 1	Hysteresis
---> Trace: 4
Point Number	Time (ms)		Voltage	mA/cm2
	1	0.000500	-0.979385	394.171427
	2	0.002500	-0.946655	274.069600
	3	0.004500	-0.755310	107.062681
	4	0.006500	-0.505219	36.345508
	5	0.008500	-0.193024	-104.660404
	6	0.010500	0.108261	-26.389282
	7	0.012500	0.451508	66.408756
	8	0.014500	0.798111	221.874932
	9	0.016500	1.155624	183.392698
	10	0.018500	1.498871	-114.908669
	11	0.020500	1.855545	-250.441971
	12	0.022500	2.218094	11.016885
	13	0.024500	2.581482	104.429818
	14	0.026500	2.941513	114.242532
	15	0.028500	3.291473	81.524946
	16	0.030500	3.659897	256.052895
	17	0.032500	4.010696	189.900346
	18	0.034500	4.373245	60.234176
	19	0.036500	4.739990	-341.190355
	20	0.038500	5.142822	-154.185144
	21	0.040500	5.444946	90.107868
	22	0.042500	5.822601	183.725767
	23	0.044500	6.177597	34.895342
	24	0.046500	6.538467	49.294154
	25	0.048500	6.894302	65.845101
	26	0.050500	7.254333	117.829424
	27	0.052500	7.615204	2.767031
	28	0.054500	7.971878	-78.014916
	29	0.056500	8.338623	-29.258796
	30	0.058500	8.691101	42.171610
	31	0.060500	9.054489	50.728911
	32	0.062500	9.411163	85.675494
	33	0.064500	9.772873	47.321363
	34	0.066500	10.127869	47.321363
	35	0.068500	10.489578	51.138841
	36	0.070500	10.845413	3.228203
	37	0.072500	11.204605	52.189288
	38	0.074500	11.567154	243.831840
	39	0.076500	11.891937	167.379785
	40	0.078500	12.303162	-88.340042
	41	0.080500	12.638855	-145.141050
	42	0.082500	13.009796	-92.208762
	43	0.084500	13.343811	179.754564
	44	0.086500	13.728180	226.486652
	45	0.088500	14.072266	38.610338
	46	0.090500	14.438171	-26.747971
	47	0.092500	14.793167	-33.306861
	48	0.094500	15.155716	-177.628049
	49	0.096500	15.516586	-95.872517
	50	0.098500	15.874100	-49.166050
	51	0.100500	16.234131	86.187907
	52	0.102500	16.589966	61.105279
	53	0.104500	16.955872	114.729324
	54	0.106500	17.304153	80.141431
	55	0.108500	17.673416	2.536446
	56	0.110500	18.030090	62.821863
	57	0.112500	18.387604	170.428643
	58	0.114500	18.747635	194.178997
	59	0.116500	19.091721	68.535271
	60	0.118500	19.472733	-96.256827
	61	0.120500	19.823532	10.197023
	62	0.122500	20.191116	201.813954
	63	0.124500	20.534363	69.406373
	64	0.126500	20.904465	-12.426021
	65	0.128500	21.257782	-127.488414
	66	0.130500	21.620331	61.745795
	67	0.132500	21.967773	149.573424
	68	0.134500	22.337875	182.291010
	69	0.136500	22.690353	70.559303
	70	0.138500	23.056259	119.315423
	71	0.140500	23.417130	-65.793860
	72	0.142500	23.771286	49.909049
	73	0.144500	24.141388	47.013915
	74	0.146500	24.490509	30.796036
	75	0.148500	24.853058	-209.397670
	76	0.150500	25.211411	-131.075307
	77	0.152500	25.589066	-23.366044
	78	0.154500	25.918045	331.249538
	79	0.156500	26.294861	233.762920
	80	0.158500	26.640625	30.488588
	81	0.160500	27.000656	-164.612753
	82	0.162500	27.364044	61.207761
	83	0.164500	27.716522	124.875106
	84	0.166500	28.083267	290.538306
	85	0.168500	28.438263	123.978383
	86	0.170500	28.806686	36.509443
	87	0.172500	29.154129	60.977175
	88	0.174500	29.521713	57.108455
	89	0.176500	29.872513	23.904078
	90	0.178500	30.236740	102.098338
	91	0.180500	30.584183	33.255619
	92	0.182500	30.958481	176.295775
	93	0.184500	31.312637	289.462239
	94	0.186500	31.674347	221.183175
	95	0.188500	32.034378	15.218673
	96	0.190500	32.399445	-194.435204
	97	0.192500	32.804794	-307.857874
	98	0.194500	33.100204	32.256413
	99	0.196500	33.477859	295.662439
	100	0.198500	33.821945	369.398704
	101	0.200500	34.199600	261.971268
	102	0.202500	34.545364	181.752976
	103	0.204500	34.913788	214.649906
	104	0.206500	35.275497	361.943091
	105	0.208500	35.633011	417.001894
	106	0.210500	35.988007	397.888880
	107	0.212500	36.344681	449.463273
	108	0.214500	36.705551	802.490374
	109	0.216500	37.066422	1077.118249
	110	0.218500	37.437363	1536.983510
	111	0.220500	37.773895	2157.951494
	112	0.222500	38.143997	3113.012909
	113	0.224500	38.498154	4355.717496
	114	0.226500	38.854828	5792.524218
	115	0.228500	39.214859	7124.491192
	116	0.230500	39.604263	8800.927965
	117	0.232500	39.934921	9970.895493
	118	0.234500	40.299149	10876.688375
	119	0.236500	40.653305	10866.209524
	120	0.238500	41.011658	9911.609281
	121	0.240500	41.375046	8223.796934
	122	0.242500	41.729202	6244.652040
	123	0.244500	42.090073	4077.861417
	124	0.246500	42.450943	2518.869759
	125	0.248500	42.811813	1533.832169
	126	0.250500	43.166809	861.007965
	127	0.252500	43.416061	727.344972
	128	0.254500	43.409348	641.362031
	129	0.256500	43.249893	478.312138
	130	0.258500	43.030014	268.068986
	131	0.260500	42.741318	244.036805
	132	0.262500	42.430801	39.942612
	133	0.264500	42.100143	297.558368
	134	0.266500	41.771164	637.595793
	135	0.268500	41.351547	549.973129
	136	0.270500	41.073761	78.066157
	137	0.272500	40.701981	-46.885811
	138	0.274500	40.346146	-296.738507
	139	0.276500	39.979401	-11.887987
	140	0.278500	39.631119	145.602222
	141	0.280500	39.266891	-65.486412
	142	0.282500	38.916092	-44.067539
	143	0.284500	38.554382	156.849692
	144	0.286500	38.190155	59.824246
	145	0.288500	37.843552	53.342218
	146	0.290500	37.477646	-6.917579
	147	0.292500	37.120132	72.019681
	148	0.294500	36.764297	41.300507
	149	0.296500	36.411819	110.655639
	150	0.298500	36.040878	-220.183969
	151	0.300500	35.692596	-371.499598
	152	0.302500	35.331726	-107.119988
	153	0.304500	34.964142	217.135110
	154	0.306500	34.625931	177.294981
	155	0.308500	34.236526	196.203029
	156	0.310500	33.906708	-158.079484
	157	0.312500	33.534927	-122.364281
	158	0.314500	33.192520	-31.923345
	159	0.316500	32.807312	7.916785
	160	0.318500	32.453995	-26.184317
	161	0.320500	32.100677	18.600601
	162	0.322500	31.742325	-3.330686
	163	0.324500	31.373062	-0.153724
	164	0.326500	31.028976	8.044888
	165	0.328500	30.661392	-63.180552
	166	0.330500	30.309753	20.240323
	167	0.332500	29.945526	-31.257208
	168	0.334500	29.579620	-19.138634
	169	0.336500	29.231339	71.046096
	170	0.338500	28.865433	56.186112
	171	0.340500	28.516312	-142.681466
	172	0.342500	28.154602	-270.887259
	173	0.344500	27.806320	-253.080899
	174	0.346500	27.438736	11.990470
	175	0.348500	27.069473	156.183555
	176	0.350500	26.713638	135.712646
	177	0.352500	26.344376	-53.265356
	178	0.354500	25.998611	-59.209350
	179	0.356500	25.632706	6.379545
	180	0.358500	25.271835	-144.167465
	181	0.360500	24.916000	-48.730499
	182	0.362500	24.565201	22.187493
	183	0.364500	24.191742	-34.818480
	184	0.366500	23.839264	-11.990470
	185	0.368500	23.475037	2.510825
	186	0.370500	23.120880	-76.477676
	187	0.372500	22.749100	-137.249886
	188	0.374500	22.399139	-207.424879
	189	0.376500	22.034073	56.749766
	190	0.378500	21.681595	298.480712
	191	0.380500	21.315689	143.193880
	192	0.382500	20.959854	-162.973031
	193	0.384500	20.643463	-259.691029
	194	0.386500	20.224686	-1.332274
	195	0.388500	19.887314	320.181412
	196	0.390500	19.521408	137.275507
	197	0.392500	19.167252	-88.340042
	198	0.394500	18.795471	-215.239181
	199	0.396500	18.438797	-239.886258
	200	0.398500	18.085480	-79.808362
	201	0.400500	17.716217	38.969027
	202	0.402500	17.370453	-263.329163
	203	0.404500	17.002869	-76.272711
	204	0.406500	16.647873	-163.280479
	205	0.408500	16.286163	17.268326
	206	0.410500	15.937881	195.178203
	207	0.412500	15.560226	62.514415
	208	0.414500	15.207748	52.163668
	209	0.416500	14.843521	180.343839
	210	0.418500	14.488525	-47.167639
	211	0.420500	14.123459	9.966437
	212	0.422500	13.752518	-146.857634
	213	0.424500	13.432770	-173.656847
	214	0.426500	13.048401	-124.260210
	215	0.428500	12.691727	-108.657227
	216	0.430500	12.325821	36.073892
	217	0.432500	11.983414	31.897724
	218	0.434500	11.611633	-21.085805
	219	0.436500	11.258316	33.511826
	220	0.438500	10.899963	0.717379
	221	0.440500	10.543289	71.327923
	222	0.442500	10.181580	-110.963087
	223	0.444500	9.823227	-154.415730
	224	0.446500	9.461517	-141.912847
	225	0.448500	9.096451	6.866337
	226	0.450500	8.748169	44.118780
	227	0.452500	8.374710	-66.613721
	228	0.454500	8.027267	-255.694206
	229	0.456500	7.664719	-45.143606
	230	0.458500	7.318115	54.033976
	231	0.460500	6.888428	237.708502
	232	0.462500	6.591339	-13.681433
	233	0.464500	6.220398	-148.215529
	234	0.466500	5.867081	-161.948204
	235	0.468500	5.494461	82.370428
	236	0.470500	5.143661	-97.256033
	237	0.472500	4.786987	-83.702703
	238	0.474500	4.431152	-122.364281
	239	0.476500	4.069443	-59.875487
	240	0.478500	3.695984	-98.793272
	241	0.480500	3.354416	-20.368426
	242	0.482500	2.985153	32.205172
	243	0.484500	2.630157	80.038948
	244	0.486500	2.273483	34.075480
	245	0.488500	1.913452	60.746589
	246	0.490500	1.546707	-169.019507
	247	0.492500	1.190872	-326.817164
	248	0.494500	0.830002	-283.210797
	249	0.496500	0.464096	-58.901902
	250	0.498500	0.145187	166.995475
	251	0.500500	-0.265198	181.752976
	252	0.502500	-0.596695	-31.103484
	253	0.504500	-0.969315	70.636165
	254	0.506500	-1.299133	2.024032
	255	0.508500	-1.679306	-163.306099
	256	0.510500	-2.033463	-284.619934
	257	0.512500	-2.402725	-91.875694
	258	0.514500	-2.756882	49.704084
	259	0.516500	-3.126144	90.594661
	260	0.518500	-3.481140	-17.601395
	261	0.520500	-3.836136	-74.146196
	262	0.522500	-4.197006	-146.908876
	263	0.524500	-4.552002	-121.723765
	264	0.526500	-4.925461	-145.141050
	265	0.528500	-5.267868	116.727736
	266	0.530500	-5.631256	191.437586
	267	0.532500	-5.991287	30.872898
	268	0.534500	-6.353836	-268.478917
	269	0.536500	-6.695404	-205.733915
	270	0.538500	-7.061310	-16.653430
	271	0.540500	-7.431412	241.807807
	272	0.542500	-7.784729	20.599012
	273	0.544500	-8.149796	-156.337279
	274	0.546500	-8.496399	-174.476708
	275	0.548500	-8.871536	-7.429992
	276	0.550500	-9.224014	2.152136
	277	0.552500	-9.581528	-60.131694
	278	0.554500	-9.937363	-170.044333
	279	0.556500	-10.304947	-44.349366
	280	0.558500	-10.661621	52.804184
	281	0.560500	-11.025009	66.434376
	282	0.562500	-11.384201	-55.571216
	283	0.564500	-11.740036	-144.654257
	284	0.566500	-12.106781	-74.632988
	285	0.568500	-12.457581	190.976414
	286	0.570500	-12.819290	131.357134
	287	0.572500	-13.181839	-68.535271
	288	0.574500	-13.536835	-264.200266
	289	0.576500	-13.854904	-212.702735
	290	0.578500	-14.270325	-188.696175
	291	0.580500	-14.606857	-34.126722
	292	0.582500	-14.975281	-60.285418
	293	0.584500	-15.327759	74.684230
	294	0.586500	-15.688629	44.631193
	295	0.588500	-16.048660	52.266150
	296	0.590500	-16.404495	-46.168433
	297	0.592500	-16.766205	-114.473118
	298	0.594500	-17.122879	-256.257861
	299	0.596500	-17.485428	-101.278477
	300	0.598500	-17.841263	-24.160284
	301	0.600500	-18.209686	-11.298712
	302	0.602500	-18.548737	-97.768446
	303	0.604500	-18.919678	-144.218706
	304	0.606500	-19.279709	-169.941851
	305	0.608500	-19.642258	80.807568
	306	0.610500	-20.004807	68.022857
	307	0.612500	-20.358963	-47.475087
	308	0.614500	-20.741653	-149.983355
	309	0.616500	-21.059723	-53.265356
	310	0.618500	-21.443253	-129.845515
	311	0.620500	-21.795731	23.980940
	312	0.622500	-22.168350	-23.750354
	313	0.624500	-22.504044	-13.450848
	314	0.626500	-22.870789	46.347777
	315	0.628500	-23.229141	-53.367839
	316	0.630500	-23.585815	-257.052101
	317	0.632500	-23.948364	13.220262
	318	0.634500	-24.311752	51.625634
	319	0.636500	-24.663391	-70.379958
	320	0.638500	-25.027618	-139.171436
	321	0.640500	-25.386810	-243.242565
	322	0.642500	-25.734253	-181.676114
	323	0.644500	-26.108551	-154.415730
	324	0.646500	-26.461029	-292.997890
	325	0.648500	-26.821899	-26.491764
	326	0.650500	-27.174377	245.855872
	327	0.652500	-27.572174	163.331720
	328	0.654500	-27.902832	61.489589
	329	0.656500	-28.262863	-88.109456
	330	0.658500	-28.615341	-224.872550
	331	0.660500	-28.973694	-210.320014
	332	0.662500	-29.348831	-253.670174
	333	0.664500	-29.697113	-226.691617
	334	0.666500	-30.061340	28.618279
	335	0.668500	-30.415497	-10.683816
	336	0.670500	-30.787277	-172.503917
	337	0.672500	-31.138916	-310.727388
	338	0.674500	-31.494751	-235.658849
	339	0.676500	-31.848907	-183.623284
	340	0.678500	-32.211456	-88.109456
	341	0.680500	-32.576523	-27.798418
	342	0.682500	-32.932358	-139.530125
	343	0.684500	-33.293228	-261.843165
	344	0.686500	-33.651581	-386.436444
	345	0.688500	-34.006577	-475.647589
	346	0.690500	-34.330521	-318.362345
	347	0.692500	-34.745102	-193.640963
	348	0.694500	-35.071564	-440.752247
	349	0.696500	-35.452576	-525.377294
	350	0.698500	-35.796661	-743.972782
	351	0.700500	-36.166763	-840.050264
	352	0.702500	-36.520920	-857.984727
	353	0.704500	-36.883469	-816.043704
	354	0.706500	-37.241821	-991.724583
	355	0.708500	-37.601013	-1159.539918
	356	0.710500	-37.965240	-1526.965831
	357	0.712500	-38.314362	-1790.653684
	358	0.714500	-38.670197	-2113.627749
	359	0.716500	-39.032745	-2665.471186
	360	0.718500	-39.404526	-3319.771651
	361	0.720500	-39.746933	-4073.429043
	362	0.722500	-40.109482	-4755.220478
	363	0.724500	-40.466156	-5564.525948
	364	0.726500	-40.828705	-6795.291306
	365	0.728500	-41.175308	-7999.078108
	366	0.730500	-41.509323	-8820.988943
	367	0.732500	-41.918030	-9118.598552
	368	0.734500	-42.259598	-8735.723380
	369	0.736500	-42.627182	-7681.971175
	370	0.738500	-42.972107	-6203.915187
	371	0.740500	-43.348923	-4396.095660
	372	0.742500	-43.695526	-2871.358826
	373	0.744500	-44.054718	-1928.006053
	374	0.746500	-44.415588	-1389.075429
	375	0.748500	-44.776459	-847.454635
	376	0.750500	-45.139008	-638.799964
	377	0.752500	-45.389099	-384.899204
	378	0.754500	-45.382385	-434.321461
	379	0.756500	-45.230484	-354.282513
	380	0.758500	-45.019836	-405.113907
	381	0.760500	-44.726944	-155.645521
	382	0.762500	-44.421463	-142.732708
	383	0.764500	-44.095840	-83.087807
	384	0.766500	-43.752594	-192.821102
	385	0.768500	-43.377457	-188.337486
	386	0.770500	-43.056030	-227.690823
	387	0.772500	-42.696838	-170.018713
	388	0.774500	-42.345200	-169.403817
	389	0.776500	-41.985168	-59.670522
	390	0.778500	-41.621780	-68.253443
	391	0.780500	-41.268463	-54.956320
	392	0.782500	-40.907593	-33.306861
	393	0.784500	-40.550079	5.892752
	394	0.786500	-40.185852	148.651081
	395	0.788500	-39.830856	-20.624633
	396	0.790500	-39.468307	-149.599045
	397	0.792500	-39.117508	-167.226061
	398	0.794500	-38.755798	-154.313247
	399	0.796500	-38.399124	75.939642
	400	0.798500	-38.044128	107.324953
	401	0.800500	-37.680740	-4.765443
	402	0.802500	-37.321548	110.988708
	403	0.804500	-36.953125	147.703116
	404	0.806500	-36.654358	46.091571
	405	0.808500	-36.223831	87.084630
	406	0.810500	-35.887299	-227.460237
	407	0.812500	-35.518036	-160.615930
	408	0.814500	-35.176468	-33.178757
	409	0.816500	-34.805527	28.387693
	410	0.818500	-34.452209	38.584717
	411	0.820500	-34.090500	137.787920
	412	0.822500	-33.733826	156.106693
	413	0.824500	-33.372116	78.834777
	414	0.826500	-33.012085	-215.854077
	415	0.828500	-32.651215	-204.683468
	416	0.830500	-32.291183	-84.804391
	417	0.832500	-31.936188	241.218532
	418	0.834500	-31.561890	337.962152
	419	0.836500	-31.217804	67.459203
	420	0.838500	-30.851898	-248.212973
	421	0.840500	-30.493546	61.130899
	422	0.842500	-30.139389	178.832220
	423	0.844500	-29.784393	200.122990
	424	0.846500	-29.426880	-58.696937
	425	0.848500	-29.054260	-268.504537
	426	0.850500	-28.695908	31.410932
	427	0.852500	-28.331680	-74.428023
	428	0.854500	-27.990112	-184.750593
	429	0.856500	-27.622528	18.754325
	430	0.858500	-27.263336	91.414522
	431	0.860500	-26.900787	323.768305
	432	0.862500	-26.554184	233.429851
	433	0.864500	-26.178207	-131.843926
	434	0.866500	-25.826569	-14.245088
	435	0.868500	-25.464859	-17.806360
	436	0.870500	-25.106506	-95.565069
	437	0.872500	-24.753189	214.573044
	438	0.874500	-24.386444	5.508442
	439	0.876500	-24.032288	-34.997824
	440	0.878500	-23.666382	-177.807394
	441	0.880500	-23.310547	-144.961705
	442	0.882500	-22.938766	-5.021650
	443	0.884500	-22.590485	238.297777
	444	0.886500	-22.224579	88.903697
	445	0.888500	-21.880493	213.163907
	446	0.890500	-21.512070	135.635784
	447	0.892500	-21.149521	116.164081
	448	0.894500	-20.795364	41.428610
	449	0.896500	-20.437012	-50.908255
	450	0.898500	-20.077820	-38.994647
	451	0.900500	-19.708557	102.892578
	452	0.902500	-19.361115	55.033182
	453	0.904500	-18.996048	-139.453263
	454	0.906500	-18.641891	-23.775974
	455	0.908500	-18.275986	54.956320
	456	0.910500	-17.927704	65.716998
	457	0.912500	-17.558441	105.582748
	458	0.914500	-17.204285	37.226822
	459	0.916500	-16.840897	63.206173
	460	0.918500	-16.482544	64.359103
	461	0.920500	-16.117477	-122.876695
	462	0.922500	-15.720520	36.381340
	463	0.924500	-15.415878	-32.948171
	464	0.926500	-15.039902	20.240323
	465	0.928500	-14.685745	56.058008
	466	0.930500	-14.315643	-7.455613
	467	0.932500	-13.979111	82.447290
	468	0.934500	-13.600616	131.664582
	469	0.936500	-13.247299	130.870341
	470	0.938500	-12.888947	207.219914
	471	0.940500	-12.523041	57.492765
	472	0.942500	-12.170563	-207.552982
	473	0.944500	-11.808014	-203.351194
	474	0.946500	-11.451340	-127.949586
	475	0.948500	-11.071167	156.926554
	476	0.950500	-10.736313	192.846722
	477	0.952500	-10.369568	258.999272
	478	0.954500	-10.010376	121.416317
	479	0.956500	-9.652863	94.412139
	480	0.958500	-9.297028	78.757915
	481	0.960500	-8.918533	33.025033
	482	0.962500	-8.574448	-121.954351
	483	0.964500	-8.216095	-131.946409
	484	0.966500	-7.856903	-23.545388
	485	0.968500	-7.501907	144.859223
	486	0.970500	-7.129288	203.837986
	487	0.972500	-6.781845	25.031387
	488	0.974500	-6.415100	-136.737473
	489	0.976500	-6.053391	-107.171229
	490	0.978500	-5.694199	87.238354
	491	0.980500	-5.335007	39.814509
	492	0.982500	-4.974136	261.791924
	493	0.984500	-4.616623	102.815716
	494	0.986500	-4.269180	31.513414
	495	0.988500	-3.894882	-9.812714
	496	0.990500	-3.535690	-30.796036
	497	0.992500	-3.179016	-90.876488
	498	0.994500	-2.820663	123.664994
	499	0.996500	-2.445526	243.733455
	500	0.998500	-2.155151	591.292076
	501	1.000500	-1.730499	732.564902

---> Task: 1	Hysteresis
---> Trace: 5
Point Number	Time (ms)		Voltage	mA/cm2
	1	0.000500	-0.995331	19.062893
	2	0.002500	-0.936584	106.968040
	3	0.004500	-0.766220	-1.476888
	4	0.006500	-0.481720	-187.541760
	5	0.008500	-0.203934	-282.980211
	6	0.010500	0.124207	-88.621870
	7	0.012500	0.449829	177.294981
	8	0.014500	0.788040	300.069193
	9	0.016500	1.159821	94.642725
	10	0.018500	1.499710	46.424639
	11	0.020500	1.863937	-14.526915
	12	0.022500	2.218933	2.895135
	13	0.024500	2.582321	-45.937847
	14	0.026500	2.938156	21.905666
	15	0.028500	3.299866	106.581954
	16	0.030500	3.658218	337.552221
	17	0.032500	4.008179	74.684230
	18	0.034500	4.383316	-216.750800
	19	0.036500	4.731598	-133.586131
	20	0.038500	5.098343	-291.819340
	21	0.040500	5.459213	218.954177
	22	0.042500	5.830154	308.498391
	23	0.044500	6.119690	108.759710
	24	0.046500	6.556931	-15.679845
	25	0.048500	6.887589	-43.939435
	26	0.050500	7.263565	-85.060598
	27	0.052500	7.601776	180.805011
	28	0.054500	7.976074	6.533269
	29	0.056500	8.329391	153.109076
	30	0.058500	8.696136	173.323778
	31	0.060500	9.054489	2.664549
	32	0.062500	9.405289	-104.199232
	33	0.064500	9.771194	-139.171436
	34	0.066500	10.122833	60.592866
	35	0.068500	10.489578	70.661786
	36	0.070500	10.845413	260.536511
	37	0.072500	11.217194	106.838160
	38	0.074500	11.562119	55.622457
	39	0.076500	11.925507	-74.658609
	40	0.078500	12.283859	-124.875106
	41	0.080500	12.632980	-46.988294
	42	0.082500	13.036652	145.089809
	43	0.084500	13.340454	83.215910
	44	0.086500	13.725662	54.725734
	45	0.088500	14.075623	50.857014
	46	0.090500	14.457474	-63.897931
	47	0.092500	14.785614	-111.757327
	48	0.094500	15.153198	50.831393
	49	0.096500	15.509872	317.798691
	50	0.098500	15.875778	144.859223
	51	0.100500	16.231613	176.295775
	52	0.102500	16.595840	-129.000033
	53	0.104500	16.945801	-112.039155
	54	0.106500	17.308350	-26.184317
	55	0.108500	17.671738	-10.555713
	56	0.110500	18.025055	11.324333
	57	0.112500	18.397675	71.660991
	58	0.114500	18.746796	99.920582
	59	0.116500	19.114380	74.248678
	60	0.118500	19.471054	-30.232381
	61	0.120500	19.851227	8.275474
	62	0.122500	20.189438	44.374986
	63	0.124500	20.550308	91.363281
	64	0.126500	20.901947	157.618312
	65	0.128500	21.258621	13.092158
	66	0.130500	21.622849	126.847897
	67	0.132500	21.978683	51.164462
	68	0.134500	22.342911	-157.515830
	69	0.136500	22.703781	-101.585925
	70	0.138500	23.069687	-42.453437
	71	0.140500	23.413773	106.915022
	72	0.142500	23.783875	177.551187
	73	0.144500	24.134674	96.538654
	74	0.146500	24.499741	74.914816
	75	0.148500	24.843826	174.579191
	76	0.150500	25.209732	169.275713
	77	0.152500	25.573959	138.530919
	78	0.154500	25.930634	-45.912226
	79	0.156500	26.284790	38.277269
	80	0.158500	26.649017	-137.198645
	81	0.160500	27.055206	-18.831187
	82	0.162500	27.343063	156.824072
	83	0.164500	27.727432	193.026067
	84	0.166500	28.074875	32.922551
	85	0.168500	28.445816	168.763300
	86	0.170500	28.794098	-121.979972
	87	0.172500	29.153290	118.674906
	88	0.174500	29.515839	144.218706
	89	0.176500	29.864120	100.919787
	90	0.178500	30.238419	189.772243
	91	0.180500	30.587540	212.215943
	92	0.182500	30.951767	-3.074479
	93	0.184500	31.308441	61.207761
	94	0.186500	31.685257	50.114015
	95	0.188500	32.023468	18.267532
	96	0.190500	32.387695	29.822451
	97	0.192500	32.746887	-24.006560
	98	0.194500	33.110275	177.013153
	99	0.196500	33.457718	190.259036
	100	0.198500	33.823624	245.881493
	101	0.200500	34.189529	137.454851
	102	0.202500	34.536133	80.679464
	103	0.204500	34.902878	190.822690
	104	0.206500	35.249481	319.233448
	105	0.208500	35.627136	381.875966
	106	0.210500	35.976257	507.878382
	107	0.212500	36.339645	353.513894
	108	0.214500	36.697998	429.786604
	109	0.216500	37.063904	733.596414
	110	0.218500	37.417221	1356.050396
	111	0.220500	37.776413	1874.074559
	112	0.222500	38.140640	2379.749564
	113	0.224500	38.496475	3307.115044
	114	0.226500	38.860703	4611.719150
	115	0.228500	39.216537	6243.217283
	116	0.230500	39.583282	7779.355311
	117	0.232500	39.939957	9353.130092
	118	0.234500	40.312576	10547.129800
	119	0.236500	40.612183	11231.098992
	120	0.238500	41.025925	10825.959464
	121	0.240500	41.378403	9418.718986
	122	0.242500	41.745148	7390.023732
	123	0.244500	42.095108	5359.022618
	124	0.246500	42.448425	3367.989737
	125	0.248500	42.810135	2263.201173
	126	0.250500	43.169327	1419.871464
	127	0.252500	43.422775	1133.253119
	128	0.254500	43.401794	787.194838
	129	0.256500	43.270874	345.776454
	130	0.258500	43.037567	116.189702
	131	0.260500	42.751389	196.741063
	132	0.262500	42.436676	195.639375
	133	0.264500	42.112732	372.191356
	134	0.266500	41.762772	124.644520
	135	0.268500	41.415329	121.518800
	136	0.270500	41.071243	157.746416
	137	0.272500	40.714569	180.907494
	138	0.274500	40.388947	122.108075
	139	0.276500	39.983597	289.487859
	140	0.278500	39.642868	60.900313
	141	0.280500	39.277802	52.650460
	142	0.282500	38.941269	-36.996236
	143	0.284500	38.556900	38.072304
	144	0.286500	38.203583	-43.503884
	145	0.288500	37.838516	-45.963468
	146	0.290500	37.486038	-144.372430
	147	0.292500	37.120132	62.360691
	148	0.294500	36.760941	95.565069
	149	0.296500	36.403427	105.557127
	150	0.298500	36.040878	-141.887226
	151	0.300500	35.686722	38.123545
	152	0.302500	35.322495	-2.075274
	153	0.304500	34.973373	153.467765
	154	0.306500	34.607468	147.036979
	155	0.308500	34.246597	-9.146576
	156	0.310500	33.887405	-267.735917
	157	0.312500	33.545837	-141.374813
	158	0.314500	33.192520	-239.220121
	159	0.316500	32.803116	-20.522150
	160	0.318500	32.455673	83.190289
	161	0.320500	32.087250	-32.102689
	162	0.322500	31.738968	175.399052
	163	0.324500	31.371384	-45.937847
	164	0.326500	31.017227	-270.887259
	165	0.328500	30.658035	-138.095368
	166	0.330500	30.314789	-20.470909
	167	0.332500	29.939651	200.712266
	168	0.334500	29.580460	129.486825
	169	0.336500	29.222946	-64.564068
	170	0.338500	28.862076	139.427642
	171	0.340500	28.502884	158.207588
	172	0.342500	28.142014	-42.043506
	173	0.344500	27.787857	-191.232621
	174	0.346500	27.427826	-242.268979
	175	0.348500	27.066956	4.073685
	176	0.350500	26.711960	49.294154
	177	0.352500	26.396408	-114.575600
	178	0.354500	25.970917	-74.248678
	179	0.356500	25.632706	-89.544214
	180	0.358500	25.271835	81.986118
	181	0.360500	24.915161	118.726147
	182	0.362500	24.551773	173.093192
	183	0.364500	24.197617	-215.828456
	184	0.366500	23.838425	-267.992124
	185	0.368500	23.476715	-243.934322
	186	0.370500	23.121719	187.901935
	187	0.372500	22.755814	349.055898
	188	0.374500	22.396622	14.706260
	189	0.376500	22.039108	-329.635437
	190	0.378500	21.697540	-181.163701
	191	0.380500	21.313171	37.944200
	192	0.382500	20.964050	166.380579
	193	0.384500	20.601501	25.005766
	194	0.386500	20.242310	-241.859049
	195	0.388500	19.882278	38.021062
	196	0.390500	19.489517	16.653430
	197	0.392500	19.187393	-24.390870
	198	0.394500	18.795471	-204.324779
	199	0.396500	18.448029	-137.557334
	200	0.398500	18.072891	-19.317979
	201	0.400500	17.731323	161.487032
	202	0.402500	17.362900	204.299158
	203	0.404500	16.998672	270.579811
	204	0.406500	16.652908	40.557508
	205	0.408500	16.293716	-223.898965
	206	0.410500	15.930328	-330.224712
	207	0.412500	15.570297	-206.092605
	208	0.414500	15.212784	-83.958909
	209	0.416500	14.852753	-29.028210
	210	0.418500	14.502792	24.211526
	211	0.420500	14.126816	154.441350
	212	0.422500	13.776016	-130.357928
	213	0.424500	13.409271	-104.737266
	214	0.426500	13.066864	113.806980
	215	0.428500	12.657318	146.934496
	216	0.430500	12.332535	-79.782741
	217	0.432500	11.976700	-123.696556
	218	0.434500	11.620026	-247.777422
	219	0.436500	11.256638	34.895342
	220	0.438500	10.889893	-42.094748
	221	0.440500	10.536575	-159.975413
	222	0.442500	10.175705	-83.984530
	223	0.444500	9.820709	83.062186
	224	0.446500	9.451447	-16.858396
	225	0.448500	9.102325	-7.173785
	226	0.450500	8.743973	56.954732
	227	0.452500	8.381424	0.102483
	228	0.454500	8.020554	-108.682848
	229	0.456500	7.663040	-188.721796
	230	0.458500	7.300491	-16.320362
	231	0.460500	6.942978	-30.206760
	232	0.462500	6.584625	-11.349953
	233	0.464500	6.224594	-25.723145
	234	0.466500	5.877991	-110.604398
	235	0.468500	5.496140	31.974586
	236	0.470500	5.151215	0.742999
	237	0.472500	4.782791	-138.992091
	238	0.474500	4.439545	-148.138667
	239	0.476500	4.065247	-20.342806
	240	0.478500	3.705215	17.934463
	241	0.480500	3.346024	-18.241911
	242	0.482500	2.980118	-98.075894
	243	0.484500	2.624283	-141.169847
	244	0.486500	2.260056	95.155138
	245	0.488500	1.911774	145.807187
	246	0.490500	1.543350	-20.060978
	247	0.492500	1.186676	-156.209176
	248	0.494500	0.820770	-194.204618
	249	0.496500	0.470810	-87.571423
	250	0.498500	0.109940	93.105486
	251	0.500500	-0.241699	1.229792
	252	0.502500	-0.606766	-128.538861
	253	0.504500	-0.951691	-116.420288
	254	0.506500	-1.299133	-102.123959
	255	0.508500	-1.686020	45.835364
	256	0.510500	-2.036819	183.905111
	257	0.512500	-2.395172	55.878664
	258	0.514500	-2.750168	-28.208349
	259	0.516500	-3.121948	-205.221502
	260	0.518500	-3.476944	-363.582814
	261	0.520500	-3.832779	-112.269741
	262	0.522500	-4.189453	43.631987
	263	0.524500	-4.561234	-17.550153
	264	0.526500	-4.915390	12.887193
	265	0.528500	-5.276260	-136.558128
	266	0.530500	-5.627899	7.250647
	267	0.532500	-5.986252	122.902315
	268	0.534500	-6.360550	48.986706
	269	0.536500	-6.711349	-63.462380
	270	0.538500	-7.074738	-42.453437
	271	0.540500	-7.428055	-36.073892
	272	0.542500	-7.794800	-47.244501
	273	0.544500	-8.108673	-104.865369
	274	0.546500	-8.519897	-114.601221
	275	0.548500	-8.860626	-22.469321
	276	0.550500	-9.227371	29.258796
	277	0.552500	-9.589081	51.933082
	278	0.554500	-9.936523	22.853630
	279	0.556500	-10.305786	-24.160284
	280	0.558500	-10.665817	-42.248472
	281	0.560500	-11.022491	-237.554778
	282	0.562500	-11.378326	-152.417318
	283	0.564500	-11.740875	9.812714
	284	0.566500	-12.099228	-119.084837
	285	0.568500	-12.458420	-64.102896
	286	0.570500	-12.810898	-17.140223
	287	0.572500	-13.179321	-19.574186
	288	0.574500	-13.534317	61.054037
	289	0.576500	-13.897705	-237.964708
	290	0.578500	-14.254379	-72.583335
	291	0.580500	-14.606018	242.781393
	292	0.582500	-15.000458	48.166844
	293	0.584500	-15.305939	-55.289388
	294	0.586500	-15.691986	-109.758916
	295	0.588500	-16.040268	-209.602635
	296	0.590500	-16.419601	-18.677463
	297	0.592500	-16.759491	-131.972030
	298	0.594500	-17.127914	-78.245502
	299	0.596500	-17.485428	68.637753
	300	0.598500	-17.840424	-13.322744
	301	0.600500	-18.203812	-73.275093
	302	0.602500	-18.560486	-21.854425
	303	0.604500	-18.919678	-46.373398
	304	0.606500	-19.279709	-131.997650
	305	0.608500	-19.636383	-268.555779
	306	0.610500	-19.992218	-95.513828
	307	0.612500	-20.361481	80.064569
	308	0.614500	-20.720673	119.622871
	309	0.616500	-21.073990	-73.249473
	310	0.618500	-21.444092	-183.597664
	311	0.620500	-21.815872	-181.599252
	312	0.622500	-22.159958	-3.330686
	313	0.624500	-22.508240	2.075274
	314	0.626500	-22.871628	-47.423845
	315	0.628500	-23.220749	-89.544214
	316	0.630500	-23.605118	24.416491
	317	0.632500	-23.949203	-87.110251
	318	0.634500	-24.310074	-58.261385
	319	0.636500	-24.667587	-56.365456
	320	0.638500	-25.041046	-62.386312
	321	0.640500	-25.388489	-230.534716
	322	0.642500	-25.749359	-269.503743
	323	0.644500	-26.107712	-167.302923
	324	0.646500	-26.467743	120.186525
	325	0.648500	-26.838684	77.963674
	326	0.650500	-27.184448	-88.083836
	327	0.652500	-27.549515	-211.959736
	328	0.654500	-27.903671	-164.407788
	329	0.656500	-28.263702	-157.157140
	330	0.658500	-28.591843	-52.624840
	331	0.660500	-28.987961	-19.317979
	332	0.662500	-29.332886	-65.614515
	333	0.664500	-29.708023	-276.421322
	334	0.666500	-30.050430	-295.790542
	335	0.668500	-30.418854	-28.951348
	336	0.670500	-30.779724	91.388901
	337	0.672500	-31.140594	-105.736472
	338	0.674500	-31.492233	-305.321428
	339	0.676500	-31.848068	-314.160557
	340	0.678500	-32.216492	-22.315597
	341	0.680500	-32.573166	-140.196262
	342	0.682500	-32.934036	-232.584369
	343	0.684500	-33.293228	-318.900379
	344	0.686500	-33.662491	-400.937739
	345	0.688500	-34.007416	-460.044606
	346	0.690500	-34.365768	-373.036838
	347	0.692500	-34.730835	-493.812638
	348	0.694500	-35.081635	-526.760810
	349	0.696500	-35.433273	-720.709221
	350	0.698500	-35.758057	-710.973369
	351	0.700500	-36.181030	-620.814260
	352	0.702500	-36.509171	-606.799758
	353	0.704500	-36.879272	-991.340273
	354	0.706500	-37.225037	-1095.385781
	355	0.708500	-37.600174	-1560.733864
	356	0.710500	-37.949295	-2055.289501
	357	0.712500	-38.309326	-2215.188053
	358	0.714500	-38.668518	-2659.501572
	359	0.716500	-39.032745	-2938.561822
	360	0.718500	-39.394455	-3363.608604
	361	0.720500	-39.752808	-4208.526793
	362	0.722500	-40.110321	-5006.251724
	363	0.724500	-40.456085	-6068.125679
	364	0.726500	-40.832901	-7339.653511
	365	0.728500	-41.187897	-8092.183593
	366	0.730500	-41.546249	-8719.223674
	367	0.732500	-41.904602	-8872.870784
	368	0.734500	-42.279739	-8413.159246
	369	0.736500	-42.602844	-7207.245930
	370	0.738500	-42.999802	-5474.725528
	371	0.740500	-43.343048	-3636.314929
	372	0.742500	-43.707275	-2195.127074
	373	0.744500	-44.073181	-1368.373934
	374	0.746500	-44.426498	-857.241728
	375	0.748500	-44.787369	-717.199190
	376	0.750500	-45.141525	-548.461510
	377	0.752500	-45.399170	-380.928002
	378	0.754500	-45.386581	-342.778836
	379	0.756500	-45.247269	-331.710710
	380	0.758500	-45.014801	-414.362966
	381	0.760500	-44.736176	-409.110730
	382	0.762500	-44.424820	-198.816337
	383	0.764500	-44.091644	-76.093366
	384	0.766500	-43.759308	-144.372430
	385	0.768500	-43.403473	-291.511892
	386	0.770500	-43.056030	-241.295394
	387	0.772500	-42.686768	150.085838
	388	0.774500	-42.396393	112.705292
	389	0.776500	-41.962509	-63.411138
	390	0.778500	-41.629333	-232.712472
	391	0.780500	-41.256714	-259.793512
	392	0.782500	-40.916824	-29.258796
	393	0.784500	-40.538330	40.993059
	394	0.786500	-40.187531	46.603984
	395	0.788500	-39.825821	135.994474
	396	0.790500	-39.464111	77.912433
	397	0.792500	-39.111633	-71.071716
	398	0.794500	-38.748245	-79.244707
	399	0.796500	-38.388214	-208.500947
	400	0.798500	-38.033218	-158.950587
	401	0.800500	-37.674026	-123.004798
	402	0.802500	-37.308121	-8.557301
	403	0.804500	-36.958160	219.031039
	404	0.806500	-36.596451	86.059803
	405	0.808500	-36.230545	91.312039
	406	0.810500	-35.888138	78.937259
	407	0.812500	-35.516357	139.017712
	408	0.814500	-35.176468	33.486205
	409	0.816500	-34.796295	-76.452055
	410	0.818500	-34.437103	-144.116223
	411	0.820500	-34.072037	-45.886606
	412	0.822500	-33.742218	-52.163668
	413	0.824500	-33.367920	39.455819
	414	0.826500	-33.009567	-89.185524
	415	0.828500	-32.649536	166.226855
	416	0.830500	-32.301254	188.388727
	417	0.832500	-31.927795	40.736852
	418	0.834500	-31.571960	-16.909637
	419	0.836500	-31.212769	-169.736885
	420	0.838500	-30.857773	28.259590
	421	0.840500	-30.501938	129.307481
	422	0.842500	-30.134354	69.534477
	423	0.844500	-29.774323	24.390870
	424	0.846500	-29.420166	-141.374813
	425	0.848500	-29.060135	-123.004798
	426	0.850500	-28.684998	114.447497
	427	0.852500	-28.337555	-15.346777
	428	0.854500	-27.983398	83.984530
	429	0.856500	-27.630081	51.446289
	430	0.858500	-27.276764	-31.282828
	431	0.860500	-26.910019	136.814335
	432	0.862500	-26.544952	57.134076
	433	0.864500	-26.188278	-143.655052
	434	0.866500	-25.826569	-191.258241
	435	0.868500	-25.463181	-65.435171
	436	0.870500	-25.115738	219.159142
	437	0.872500	-24.747314	400.655912
	438	0.874500	-24.392319	229.996682
	439	0.876500	-24.034805	-112.602809
	440	0.878500	-23.684006	-150.034596
	441	0.880500	-23.308029	110.015122
	442	0.882500	-22.953873	234.505919
	443	0.884500	-22.596359	36.868133
	444	0.886500	-22.230453	-118.085631
	445	0.888500	-21.875458	-274.346048
	446	0.890500	-21.468430	3.535651
	447	0.892500	-21.170502	-10.068920
	448	0.894500	-20.782776	106.325747
	449	0.896500	-20.438690	84.061392
	450	0.898500	-20.067749	233.609196
	451	0.900500	-19.720306	-99.203203
	452	0.902500	-19.347687	-149.701528
	453	0.904500	-18.997726	-44.554331
	454	0.906500	-18.639374	227.434616
	455	0.908500	-18.276825	194.819513
	456	0.910500	-17.918472	208.347223
	457	0.912500	-17.556763	-68.945201
	458	0.914500	-17.201767	-31.846483
	459	0.916500	-16.821594	-8.275474
	460	0.918500	-16.490097	38.021062
	461	0.920500	-16.120834	109.938260
	462	0.922500	-15.759125	-29.386899
	463	0.924500	-15.398254	-17.165844
	464	0.926500	-15.045776	55.955526
	465	0.928500	-14.679871	7.506854
	466	0.930500	-14.309769	66.203790
	467	0.932500	-13.964005	-13.783916
	468	0.934500	-13.597260	-0.512413
	469	0.936500	-13.244781	128.026448
	470	0.938500	-12.879715	-3.586893
	471	0.940500	-12.523041	-38.533476
	472	0.942500	-12.168045	104.583542
	473	0.944500	-11.808014	-4.048065
	474	0.946500	-11.441269	8.224232
	475	0.948500	-11.091309	-15.039329
	476	0.950500	-10.725403	240.168085
	477	0.952500	-10.366211	210.243152
	478	0.954500	-10.013733	178.012359
	479	0.956500	-9.648666	-74.889195
	480	0.958500	-9.293671	-27.516591
	481	0.960500	-8.930283	-214.957354
	482	0.962500	-8.572769	196.459236
	483	0.964500	-8.204346	235.581987
	484	0.966500	-7.909775	242.909496
	485	0.968500	-7.477570	-130.742238
	486	0.970500	-7.136841	-189.490416
	487	0.972500	-6.767578	-145.346015
	488	0.974500	-6.428528	318.797897
	489	0.976500	-6.053391	75.350367
	490	0.978500	-5.696716	25.697524
	491	0.980500	-5.339203	-8.326715
	492	0.982500	-4.978333	2.152136
	493	0.984500	-4.625854	129.538067
	494	0.986500	-4.254074	46.706467
	495	0.988500	-3.903275	-93.874105
	496	0.990500	-3.542404	-115.677289
	497	0.992500	-3.182373	82.780359
	498	0.994500	-2.811432	214.090707
	499	0.996500	-2.458954	180.508570
	500	0.998500	-2.098083	-186.486543
	501	1.000500	-1.738892	-449.515309

---> Task: 1	Hysteresis
---> Trace: 6
Point Number	Time (ms)		Voltage	mA/cm2
	1	0.000500	-0.991135	465.358852
	2	0.002500	-0.935745	131.036475
	3	0.004500	-0.757828	-219.540618
	4	0.006500	-0.501022	-522.536371
	5	0.008500	-0.210648	-391.483715
	6	0.010500	0.116653	-105.480265
	7	0.012500	0.448990	54.315803
	8	0.014500	0.798950	287.771275
	9	0.016500	1.156464	183.238974
	10	0.018500	1.470337	-37.713614
	11	0.020500	1.885757	-199.994887
	12	0.022500	2.213058	28.618279
	13	0.024500	2.578964	318.106139
	14	0.026500	2.920532	392.482920
	15	0.028500	3.300705	39.916991
	16	0.030500	3.654861	-182.829044
	17	0.032500	4.022446	-180.881873
	18	0.034500	4.380798	-46.757708
	19	0.036500	4.735794	96.589896
	20	0.038500	5.100861	174.604811
	21	0.040500	5.459213	60.387900
	22	0.042500	5.818405	-231.815749
	23	0.044500	6.180954	-386.333962
	24	0.046500	6.546021	-152.109870
	25	0.048500	6.893463	95.641931
	26	0.050500	7.260208	91.260798
	27	0.052500	7.616882	46.680846
	28	0.054500	7.969360	100.484236
	29	0.056500	8.347015	117.496356
	30	0.058500	8.675156	252.440382
	31	0.060500	9.059525	-95.590690
	32	0.062500	9.406128	-120.929524
	33	0.064500	9.775391	129.666170
	34	0.066500	10.117798	380.261865
	35	0.068500	10.485382	322.897203
	36	0.070500	10.842896	101.124753
	37	0.072500	11.199570	-146.242738
	38	0.074500	11.552048	-176.013948
	39	0.076500	11.923828	-126.053657
	40	0.078500	12.283020	-1.511619
	41	0.080500	12.641373	-24.698318
	42	0.082500	13.001404	67.510444
	43	0.084500	13.355560	70.789889
	44	0.086500	13.725662	-133.996062
	45	0.088500	14.075623	31.359690
	46	0.090500	14.436493	114.985531
	47	0.092500	14.791489	20.470909
	48	0.094500	15.169983	253.875139
	49	0.096500	15.515747	249.186558
	50	0.098500	15.882492	-147.805599
	51	0.100500	16.229935	-219.517832
	52	0.102500	16.595001	-265.148230
	53	0.104500	16.948318	2.920755
	54	0.106500	17.309189	426.481539
	55	0.108500	17.665863	432.912325
	56	0.110500	18.032608	219.031039
	57	0.112500	18.392639	231.328957
	58	0.114500	18.737564	11.785504
	59	0.116500	19.111023	-196.023685
	60	0.118500	19.469376	-186.723384
	61	0.120500	19.831085	0.589275
	62	0.122500	20.170975	-40.531887
	63	0.124500	20.551147	73.608162
	64	0.126500	20.907822	109.810157
	65	0.128500	21.268692	14.680639
	66	0.130500	21.622009	-10.094541
	67	0.132500	21.987915	160.641550
	68	0.134500	22.378159	369.629290
	69	0.136500	22.687836	579.821201
	70	0.138500	23.066330	300.197296
	71	0.140500	23.417130	11.016885
	72	0.142500	23.783875	-54.802596
	73	0.144500	24.128799	78.809156
	74	0.146500	24.499741	98.229618
	75	0.148500	24.856415	0.922344
	76	0.150500	25.216446	-24.032181
	77	0.152500	25.574799	114.473118
	78	0.154500	25.932312	244.036805
	79	0.156500	26.288986	271.579017
	80	0.158500	26.645660	303.143672
	81	0.160500	27.015762	268.427675
	82	0.162500	27.355652	213.804424
	83	0.164500	27.727432	-25.364455
	84	0.166500	28.080750	-166.688027
	85	0.168500	28.438263	-65.870722
	86	0.170500	28.792419	144.244327
	87	0.172500	29.174271	-17.191464
	88	0.174500	29.526749	-198.483268
	89	0.176500	29.879227	-259.204237
	90	0.178500	30.238419	-148.189909
	91	0.180500	30.587540	27.849660
	92	0.182500	30.953445	-15.013708
	93	0.184500	31.302567	-126.002415
	94	0.186500	31.665115	132.253857
	95	0.188500	32.023468	69.944407
	96	0.190500	32.395248	9.120956
	97	0.192500	32.745209	13.835157
	98	0.194500	33.107758	-68.919581
	99	0.196500	33.466949	-102.892578
	100	0.198500	33.821945	-43.811332
	101	0.200500	34.188690	-97.384136
	102	0.202500	34.539490	-12.733469
	103	0.204500	34.897842	-151.648698
	104	0.206500	35.263748	298.275746
	105	0.208500	35.629654	123.927142
	106	0.210500	35.937653	146.755152
	107	0.212500	36.363144	312.443972
	108	0.214500	36.694641	506.802314
	109	0.216500	37.059708	775.434954
	110	0.218500	37.398758	1252.491680
	111	0.220500	37.779770	1334.067868
	112	0.222500	38.133926	2278.932260
	113	0.224500	38.489761	3031.846652
	114	0.226500	38.853989	4110.040969
	115	0.228500	39.207306	5527.222264
	116	0.230500	39.574890	7217.033023
	117	0.232500	39.934082	8737.183758
	118	0.234500	40.295792	10107.940413
	119	0.236500	40.655823	10890.062361
	120	0.238500	41.022568	11207.451121
	121	0.240500	41.373367	10622.966960
	122	0.242500	41.736755	8792.345043
	123	0.244500	42.093430	6625.631283
	124	0.246500	42.438354	4509.569571
	125	0.248500	42.806778	2778.791374
	126	0.250500	43.151703	1656.657622
	127	0.252500	43.424454	730.342589
	128	0.254500	43.414383	85.316804
	129	0.256500	43.283463	188.311865
	130	0.258500	43.014908	162.076307
	131	0.260500	42.747192	178.396669
	132	0.262500	42.430801	285.234829
	133	0.264500	42.108536	215.495388
	134	0.266500	41.756058	123.132901
	135	0.268500	41.419525	98.793272
	136	0.270500	41.064529	233.865402
	137	0.272500	40.703659	419.102788
	138	0.274500	40.349503	480.925445
	139	0.276500	39.986115	303.502361
	140	0.278500	39.641190	408.316489
	141	0.280500	39.273605	506.238659
	142	0.282500	38.921967	335.297603
	143	0.284500	38.556900	-21.470115
	144	0.286500	38.216171	112.551568
	145	0.288500	37.841873	174.861018
	146	0.290500	37.497787	320.027688
	147	0.292500	37.123489	132.612546
	148	0.294500	36.757584	-193.026067
	149	0.296500	36.410141	-352.284102
	150	0.298500	36.049271	-343.803663
	151	0.300500	35.686722	-519.125852
	152	0.302500	35.334244	-457.021368
	153	0.304500	34.983444	-432.169326
	154	0.306500	34.614182	-169.864989
	155	0.308500	34.256668	76.093366
	156	0.310500	33.894119	105.275300
	157	0.312500	33.538284	103.994267
	158	0.314500	33.165665	41.761679
	159	0.316500	32.812347	292.280511
	160	0.318500	32.458191	360.764541
	161	0.320500	32.094803	170.249299
	162	0.322500	31.734772	235.274539
	163	0.324500	31.383133	120.314629
	164	0.326500	31.054993	-42.325334
	165	0.328500	30.647964	96.205586
	166	0.330500	30.312271	-6.584510
	167	0.332500	29.943008	-265.737506
	168	0.334500	29.595566	-209.064601
	169	0.336500	29.222107	-382.542104
	170	0.338500	28.865433	-225.846135
	171	0.340500	28.505402	-204.478503
	172	0.342500	28.137817	-198.662613
	173	0.344500	27.793732	-151.392491
	174	0.346500	27.424469	97.435377
	175	0.348500	27.067795	95.923758
	176	0.350500	26.710281	120.622076
	177	0.352500	26.366196	66.511238
	178	0.354500	25.978470	407.932180
	179	0.356500	25.635223	314.186177
	180	0.358500	25.274353	-54.418286
	181	0.360500	24.912643	-132.407581
	182	0.362500	24.545059	-265.096989
	183	0.364500	24.208527	-268.171469
	184	0.366500	23.832550	-191.693793
	185	0.368500	23.476715	-236.017538
	186	0.370500	23.111649	-84.932494
	187	0.372500	22.746582	-74.914816
	188	0.374500	22.401657	-247.418732
	189	0.376500	22.034073	45.604778
	190	0.378500	21.674881	319.182207
	191	0.380500	21.319885	440.624144
	192	0.382500	20.969086	282.109109
	193	0.384500	20.601501	99.587513
	194	0.386500	20.245667	50.088394
	195	0.388500	19.881439	-170.556747
	196	0.390500	19.509659	-385.770307
	197	0.392500	19.162216	-400.630291
	198	0.394500	18.800507	-120.109663
	199	0.396500	18.441315	-314.237419
	200	0.398500	18.081284	-89.185524
	201	0.400500	17.735519	-37.483028
	202	0.402500	17.324295	74.069334
	203	0.404500	17.022171	222.822897
	204	0.406500	16.637802	261.023304
	205	0.408500	16.287842	-21.418873
	206	0.410500	15.916061	231.328957
	207	0.412500	15.568619	-141.707881
	208	0.414500	15.206909	-194.665789
	209	0.416500	14.851074	-230.278510
	210	0.418500	14.492722	-236.606813
	211	0.420500	14.123459	-93.387313
	212	0.422500	13.774338	112.269741
	213	0.424500	13.413467	-75.632194
	214	0.426500	13.055954	55.494354
	215	0.428500	12.700119	124.055245
	216	0.430500	12.345123	167.354164
	217	0.432500	11.971664	59.952349
	218	0.434500	11.618347	-132.330719
	219	0.436500	11.258316	-237.682881
	220	0.438500	10.892410	-168.814542
	221	0.440500	10.560913	-205.580191
	222	0.442500	10.158081	34.587894
	223	0.444500	9.832458	57.953937
	224	0.446500	9.459000	86.623458
	225	0.448500	9.123306	88.314422
	226	0.450500	8.731384	78.245502
	227	0.452500	8.385620	-7.609337
	228	0.454500	8.019714	-124.413934
	229	0.456500	7.673111	-174.143639
	230	0.458500	7.292099	-103.071923
	231	0.460500	6.942978	-115.216117
	232	0.462500	6.586304	-230.201648
	233	0.464500	6.224594	-202.531333
	234	0.466500	5.866241	54.033976
	235	0.468500	5.494461	161.538274
	236	0.470500	5.147858	202.275126
	237	0.472500	4.783630	148.702322
	238	0.474500	4.428635	-144.756740
	239	0.476500	4.068604	-307.294219
	240	0.478500	3.721161	-308.780218
	241	0.480500	3.354416	-81.396843
	242	0.482500	2.989349	192.026861
	243	0.484500	2.622604	105.762093
	244	0.486500	2.261734	33.358102
	245	0.488500	1.911774	87.776388
	246	0.490500	1.545868	-69.970028
	247	0.492500	1.194229	-206.579397
	248	0.494500	0.828323	-258.307514
	249	0.496500	0.475006	-197.509683
	250	0.498500	0.106583	-39.814509
	251	0.500500	-0.245895	-70.098131
	252	0.502500	-0.607605	78.783535
	253	0.504500	-0.962601	179.600840
	254	0.506500	-1.328506	121.134490
	255	0.508500	-1.684341	-113.602015
	256	0.510500	-2.037659	-125.618106
	257	0.512500	-2.396851	-118.879871
	258	0.514500	-2.760239	-36.791271
	259	0.516500	-3.116913	-120.340249
	260	0.518500	-3.427429	76.298331
	261	0.520500	-3.850403	-41.659196
	262	0.522500	-4.188614	-1.767826
	263	0.524500	-4.557037	14.450053
	264	0.526500	-4.900284	-48.756120
	265	0.528500	-5.277100	-23.007354
	266	0.530500	-5.628738	-126.309863
	267	0.532500	-5.992126	-321.462445
	268	0.534500	-6.360550	-108.272917
	269	0.536500	-6.713867	147.754357
	270	0.538500	-7.073898	179.882668
	271	0.540500	-7.428894	119.955939
	272	0.542500	-7.786407	-186.415936
	273	0.544500	-8.133011	-414.798517
	274	0.546500	-8.514862	-279.649525
	275	0.548500	-8.864822	-49.652843
	276	0.550500	-9.229050	165.355752
	277	0.552500	-9.589920	412.979450
	278	0.554500	-9.950790	191.719413
	279	0.556500	-10.311661	-276.651908
	280	0.558500	-10.654907	-391.509335
	281	0.560500	-11.030884	-161.333308
	282	0.562500	-11.380844	90.850867
	283	0.564500	-11.750107	240.526774
	284	0.566500	-12.090836	-221.183175
	285	0.568500	-12.458420	-205.733915
	286	0.570500	-12.815933	-89.339248
	287	0.572500	-13.171768	-11.811125
	288	0.574500	-13.529282	-117.317011
	289	0.576500	-13.898544	-47.449466
	290	0.578500	-14.247665	-2.638928
	291	0.580500	-14.606018	147.165082
	292	0.582500	-14.971924	-55.186906
	293	0.584500	-15.323563	-125.951174
	294	0.586500	-15.690308	-88.109456
	295	0.588500	-16.044464	-97.512239
	296	0.590500	-16.404495	80.730706
	297	0.592500	-16.749420	167.021095
	298	0.594500	-17.174072	116.164081
	299	0.596500	-17.473679	-72.890783
	300	0.598500	-17.840424	-255.130552
	301	0.600500	-18.193741	-325.715475
	302	0.602500	-18.563843	8.326715
	303	0.604500	-18.920517	-56.801008
	304	0.606500	-19.278870	-123.414729
	305	0.608500	-19.636383	-121.493179
	306	0.610500	-19.997253	-81.729912
	307	0.612500	-20.365677	-186.031626
	308	0.614500	-20.717316	-119.879077
	309	0.616500	-21.078186	27.490970
	310	0.618500	-21.437378	187.825073
	311	0.620500	-21.793213	327.688266
	312	0.622500	-22.149048	135.430819
	313	0.624500	-22.514954	-374.958388
	314	0.626500	-22.873306	-243.703736
	315	0.628500	-23.231659	-468.012632
	316	0.630500	-23.596725	-287.617551
	317	0.632500	-23.910599	203.351194
	318	0.634500	-24.330215	186.672143
	319	0.636500	-24.656677	80.192672
	320	0.638500	-25.034332	-56.467939
	321	0.640500	-25.370026	-424.431886
	322	0.642500	-25.754395	-322.922823
	323	0.644500	-26.098480	-170.607988
	324	0.646500	-26.470261	3.843099
	325	0.648500	-26.823578	144.500533
	326	0.650500	-27.186127	279.444560
	327	0.652500	-27.550354	126.156139
	328	0.654500	-27.905350	-166.816130
	329	0.656500	-28.265381	-205.195882
	330	0.658500	-28.626251	-420.511925
	331	0.660500	-28.987961	-298.250126
	332	0.662500	-29.334564	-155.107487
	333	0.664500	-29.701309	-139.709470
	334	0.666500	-30.057983	-275.268392
	335	0.668500	-30.420532	-134.431613
	336	0.670500	-30.762100	-73.992472
	337	0.672500	-31.112900	104.147991
	338	0.674500	-31.504822	-14.783122
	339	0.676500	-31.848068	-204.504124
	340	0.678500	-32.219009	-552.637678
	341	0.680500	-32.568970	-529.681565
	342	0.682500	-32.938232	-252.594106
	343	0.684500	-33.289032	-178.371048
	344	0.686500	-33.649063	-227.178409
	345	0.688500	-33.990631	-241.551601
	346	0.690500	-34.369125	-297.455885
	347	0.692500	-34.724121	-286.797690
	348	0.694500	-35.084991	-406.471802
	349	0.696500	-35.444183	-841.792469
	350	0.698500	-35.810928	-953.037383
	351	0.700500	-36.170959	-1098.613984
	352	0.702500	-36.521759	-1227.024742
	353	0.704500	-36.880951	-1207.783625
	354	0.706500	-37.240143	-1145.909726
	355	0.708500	-37.595139	-1361.379493
	356	0.710500	-37.913208	-1792.780199
	357	0.712500	-38.335342	-2147.651988
	358	0.714500	-38.666840	-2465.194472
	359	0.716500	-39.034424	-3142.604774
	360	0.718500	-39.384384	-3962.465956
	361	0.720500	-39.751968	-4999.411007
	362	0.722500	-40.110321	-5820.040809
	363	0.724500	-40.467834	-6824.729447
	364	0.726500	-40.835419	-7745.536037
	365	0.728500	-41.182861	-8432.374743
	366	0.730500	-41.552124	-8696.113837
	367	0.732500	-41.907959	-8379.135007
	368	0.734500	-42.268829	-7591.043446
	369	0.736500	-42.612076	-6102.021815
	370	0.738500	-42.990570	-4192.385776
	371	0.740500	-43.348923	-2691.604262
	372	0.742500	-43.702240	-1864.620535
	373	0.744500	-44.063110	-965.668369
	374	0.746500	-44.428177	-817.145392
	375	0.748500	-44.818420	-904.255643
	376	0.750500	-45.115509	-875.022467
	377	0.752500	-45.395813	-828.239139
	378	0.754500	-45.384064	-687.427981
	379	0.756500	-45.253983	-321.846755
	380	0.758500	-45.006409	-427.275779
	381	0.760500	-44.728622	-326.176647
	382	0.762500	-44.414749	-6.789475
	383	0.764500	-44.088287	67.049272
	384	0.766500	-43.749237	-1.972791
	385	0.768500	-43.404312	33.025033
	386	0.770500	-43.054352	21.265149
	387	0.772500	-42.695999	73.633782
	388	0.774500	-42.337646	106.915022
	389	0.776500	-41.971741	45.143606
	390	0.778500	-41.622620	-107.171229
	391	0.780500	-41.260910	-290.743272
	392	0.782500	-40.905914	-152.007387
	393	0.784500	-40.534134	0.256207
	394	0.786500	-40.203476	-137.762299
	395	0.788500	-39.835052	-297.122817
	396	0.790500	-39.463272	-309.036424
	397	0.792500	-39.109116	-93.464175
	398	0.794500	-38.754120	181.624873
	399	0.796500	-38.400803	93.848485
	400	0.798500	-38.029861	-216.853283
	401	0.800500	-37.677383	-246.906319
	402	0.802500	-37.316513	-130.409169
	403	0.804500	-36.962357	-9.325921
	404	0.806500	-36.598129	-147.651875
	405	0.808500	-36.239777	-61.976381
	406	0.810500	-35.882263	-17.088982
	407	0.812500	-35.529785	79.219087
	408	0.814500	-35.162201	29.463761
	409	0.816500	-34.799652	56.262974
	410	0.818500	-34.447174	65.178964
	411	0.820500	-34.090500	152.596663
	412	0.822500	-33.723755	153.365282
	413	0.824500	-33.337708	277.241183
	414	0.826500	-33.018799	395.583020
	415	0.828500	-32.641144	51.830599
	416	0.830500	-32.294540	60.618486
	417	0.832500	-31.920242	-38.738441
	418	0.834500	-31.574478	61.950761
	419	0.836500	-31.211929	33.332481
	420	0.838500	-30.855255	14.014502
	421	0.840500	-30.495224	60.106073
	422	0.842500	-30.138550	292.254891
	423	0.844500	-29.786911	153.647110
	424	0.846500	-29.421844	-209.961325
	425	0.848500	-29.057617	-219.876521
	426	0.850500	-28.701782	-3.843099
	427	0.852500	-28.350983	100.561098
	428	0.854500	-27.976685	38.994647
	429	0.856500	-27.622528	102.380165
	430	0.858500	-27.269211	-63.846690
	431	0.860500	-26.904144	21.393253
	432	0.862500	-26.525650	12.579745
	433	0.864500	-26.151352	-18.677463
	434	0.866500	-25.839157	-58.030799
	435	0.868500	-25.458984	67.869133
	436	0.870500	-25.107346	-145.448498
	437	0.872500	-24.739761	-212.779597
	438	0.874500	-24.394836	-27.542212
	439	0.876500	-24.024734	-153.288420
	440	0.878500	-23.671417	-106.658816
	441	0.880500	-23.301315	15.269915
	442	0.882500	-22.953873	-73.889989
	443	0.884500	-22.595520	-129.973618
	444	0.886500	-22.236328	-133.816717
	445	0.888500	-21.872940	-57.953937
	446	0.890500	-21.506195	121.032007
	447	0.892500	-21.164627	123.952763
	448	0.894500	-20.793686	-59.542418
	449	0.896500	-20.435333	45.732882
	450	0.898500	-20.071945	237.170468
	451	0.900500	-19.711075	85.777976
	452	0.902500	-19.323349	-183.392698
	453	0.904500	-18.996887	-149.624666
	454	0.906500	-18.630981	23.596630
	455	0.908500	-18.277664	338.474565
	456	0.910500	-17.915955	352.463446
	457	0.912500	-17.555084	186.518419
	458	0.914500	-17.195892	277.497390
	459	0.916500	-16.836700	434.731392
	460	0.918500	-16.474152	376.444386
	461	0.920500	-16.115799	371.064047
	462	0.922500	-15.761642	82.242325
	463	0.924500	-15.397415	-56.160491
	464	0.926500	-15.038223	-114.780566
	465	0.928500	-14.674835	-121.032007
	466	0.930500	-14.322357	-116.804598
	467	0.932500	-13.959808	-78.655432
	468	0.934500	-13.596420	-335.015776
	469	0.936500	-13.238907	-204.119814
	470	0.938500	-12.876358	-397.017778
	471	0.940500	-12.553253	-280.597490
	472	0.942500	-12.145386	-184.648111
	473	0.944500	-11.810532	156.286038
	474	0.946500	-11.437073	357.869406
	475	0.948500	-11.098022	522.661504
	476	0.950500	-10.724564	322.743479
	477	0.952500	-10.368729	296.149231
	478	0.954500	-10.005341	98.793272
	479	0.956500	-9.652023	232.763714
	480	0.958500	-9.290314	-39.353337
	481	0.960500	-8.936157	-70.841130
	482	0.962500	-8.573608	-142.630225
	483	0.964500	-8.212738	-276.984976
	484	0.966500	-7.845993	-261.843165
	485	0.968500	-7.488480	35.587099
	486	0.970500	-7.138519	230.816543
	487	0.972500	-6.770096	280.725593
	488	0.974500	-6.413422	399.759188
	489	0.976500	-6.052551	362.686091
	490	0.978500	-5.710983	22.494941
	491	0.980500	-5.345078	-245.394700
	492	0.982500	-4.979172	-458.891676
	493	0.984500	-4.613266	-284.056279
	494	0.986500	-4.250717	202.608195
	495	0.988500	-3.904953	150.572630
	496	0.990500	-3.537369	54.443907
	497	0.992500	-3.179016	82.780359
	498	0.994500	-2.818146	84.399102
	499	0.996500	-2.463989	6.329521
	500	0.998500	-2.091370	-165.949481
	501	1.000500	-1.742249	-289.307431

---> Task: 1	Hysteresis
---> Trace: 7
Point Number	Time (ms)		Voltage	mA/cm2
	1	0.000500	-1.000366	-571.271849
	2	0.002500	-0.935745	-529.580709
	3	0.004500	-0.757828	-146.704238
	4	0.006500	-0.500183	22.725898
	5	0.008500	-0.203934	274.115462
	6	0.010500	0.133438	75.914021
	7	0.012500	0.461578	85.854838
	8	0.014500	0.806503	44.861779
	9	0.016500	1.153107	55.417492
	10	0.018500	1.511459	-29.771209
	11	0.020500	1.854706	-132.740650
	12	0.022500	2.216415	47.526328
	13	0.024500	2.576447	261.689441
	14	0.026500	2.941513	-14.373191
	15	0.028500	3.295670	-207.501741
	16	0.030500	3.660736	-245.907113
	17	0.032500	4.064407	33.178757
	18	0.034500	4.370728	131.715823
	19	0.036500	4.744186	120.186525
	20	0.038500	5.098343	-46.373398
	21	0.040500	5.470123	50.190877
	22	0.042500	5.816727	154.748798
	23	0.044500	6.182632	212.702735
	24	0.046500	6.540146	6.430786
	25	0.048500	6.892624	131.690202
	26	0.050500	7.259369	144.833602
	27	0.052500	7.612686	33.998618
	28	0.054500	7.981110	-69.944407
	29	0.056500	8.331070	-311.034836
	30	0.058500	8.715439	-67.254238
	31	0.060500	9.048615	204.452882
	32	0.062500	9.409485	62.565656
	33	0.064500	9.766159	-80.448879
	34	0.066500	10.131226	-61.284623
	35	0.068500	10.484543	90.184730
	36	0.070500	10.829468	332.120641
	37	0.072500	11.228104	45.169227
	38	0.074500	11.563797	-42.863367
	39	0.076500	11.928864	-25.825627
	40	0.078500	12.276306	184.263801
	41	0.080500	12.655640	126.028036
	42	0.082500	13.006439	-26.004972
	43	0.084500	13.365631	62.975587
	44	0.086500	13.722305	214.829250
	45	0.088500	14.091568	-42.709643
	46	0.090500	14.446564	-408.342110
	47	0.092500	14.796524	-321.641790
	48	0.094500	15.158234	84.266357
	49	0.096500	15.512390	267.940883
	50	0.098500	15.884171	278.394113
	51	0.100500	16.231613	180.241357
	52	0.102500	16.594162	-157.772036
	53	0.104500	16.956711	114.396256
	54	0.106500	17.320099	171.991504
	55	0.108500	17.645721	70.533682
	56	0.110500	18.032608	201.275920
	57	0.112500	18.390121	9.915196
	58	0.114500	18.759384	-230.765302
	59	0.116500	19.105148	0.589275
	60	0.118500	19.465179	-167.046716
	61	0.120500	19.829407	-68.791477
	62	0.122500	20.181046	309.241390
	63	0.124500	20.549469	291.358168
	64	0.126500	20.897751	94.463381
	65	0.128500	21.263657	-43.785711
	66	0.130500	21.623688	-227.306513
	67	0.132500	21.983719	-87.187113
	68	0.134500	22.342072	147.446910
	69	0.136500	22.705460	213.625079
	70	0.138500	23.065491	336.040602
	71	0.140500	23.422165	229.048718
	72	0.142500	23.782196	-306.858668
	73	0.144500	24.140549	-360.149645
	74	0.146500	24.532471	-86.802803
	75	0.148500	24.840469	333.145467
	76	0.150500	25.230713	404.294046
	77	0.152500	25.570602	170.479885
	78	0.154500	25.955811	55.391871
	79	0.156500	26.283951	-22.674286
	80	0.158500	26.654892	-212.523391
	81	0.160500	27.002335	-150.418906
	82	0.162500	27.364883	84.189495
	83	0.164500	27.720718	251.031246
	84	0.166500	28.080750	203.479297
	85	0.168500	28.439102	-79.398431
	86	0.170500	28.794937	88.135077
	87	0.172500	29.156647	168.993886
	88	0.174500	29.506607	182.419113
	89	0.176500	29.882584	115.984737
	90	0.178500	30.231705	318.951621
	91	0.180500	30.593414	281.673557
	92	0.182500	30.953445	-80.833188
	93	0.184500	31.328583	-433.732186
	94	0.186500	31.691971	-247.495594
	95	0.188500	32.023468	60.567245
	96	0.190500	32.394409	371.422736
	97	0.192500	32.746048	205.887639
	98	0.194500	33.116989	13.809537
	99	0.196500	33.469467	78.296743
	100	0.198500	33.832016	131.024065
	101	0.200500	34.188690	208.859636
	102	0.202500	34.558792	257.385170
	103	0.204500	34.903717	426.532780
	104	0.206500	35.267105	324.075753
	105	0.208500	35.628815	303.425499
	106	0.210500	35.983810	-78.681053
	107	0.212500	36.344681	114.831807
	108	0.214500	36.698837	331.659469
	109	0.216500	37.071457	660.884975
	110	0.218500	37.421417	802.157305
	111	0.220500	37.781448	1258.307570
	112	0.222500	38.139801	1606.620469
	113	0.224500	38.540115	2337.142403
	114	0.226500	38.858185	2989.137009
	115	0.228500	39.220734	4260.818564
	116	0.230500	39.570694	6127.130063
	117	0.232500	39.937439	8119.187771
	118	0.234500	40.296631	9385.847677
	119	0.236500	40.657501	10408.829467
	120	0.238500	41.015854	10935.590277
	121	0.240500	41.381760	10797.443668
	122	0.242500	41.745148	9869.232706
	123	0.244500	42.097626	7805.360283
	124	0.246500	42.456818	5438.830980
	125	0.248500	42.821884	3691.963007
	126	0.250500	43.181915	2206.502648
	127	0.252500	43.422775	1402.731242
	128	0.254500	43.419418	967.794884
	129	0.256500	43.264999	860.264966
	130	0.258500	43.035049	832.440927
	131	0.260500	42.756424	533.370940
	132	0.262500	42.414856	137.864782
	133	0.264500	42.132874	-102.482648
	134	0.266500	41.761932	-50.959497
	135	0.268500	41.422882	370.218565
	136	0.270500	41.056976	616.868678
	137	0.272500	40.716248	459.378469
	138	0.274500	40.355377	211.063013
	139	0.276500	39.997025	-141.528537
	140	0.278500	39.636154	3.125721
	141	0.280500	39.275284	-79.167845
	142	0.282500	38.922806	-69.047684
	143	0.284500	38.567810	-15.064949
	144	0.286500	38.201065	189.362312
	145	0.288500	37.844391	25.415697
	146	0.290500	37.488556	54.443907
	147	0.292500	37.118454	-174.989121
	148	0.294500	36.770172	-170.095575
	149	0.296500	36.414337	161.768860
	150	0.298500	36.055145	364.633261
	151	0.300500	35.659866	425.200506
	152	0.302500	35.331726	260.664615
	153	0.304500	34.970016	-283.390142
	154	0.306500	34.614182	-406.164354
	155	0.308500	34.265060	-17.242705
	156	0.310500	33.881531	49.909049
	157	0.312500	33.530731	105.070335
	158	0.314500	33.169861	-46.860191
	159	0.316500	32.813187	-10.401989
	160	0.318500	32.443924	-9.684610
	161	0.320500	32.093964	-168.558335
	162	0.322500	31.734772	-200.686645
	163	0.324500	31.373901	21.470115
	164	0.326500	31.014709	205.836398
	165	0.328500	30.658875	171.479090
	166	0.330500	30.302200	-174.143639
	167	0.332500	29.941330	-175.270948
	168	0.334500	29.582138	-197.842752
	169	0.336500	29.222107	9.966437
	170	0.338500	28.899002	27.926522
	171	0.340500	28.485260	87.802008
	172	0.342500	28.158798	-90.415316
	173	0.344500	27.787018	-59.030005
	174	0.346500	27.441254	-310.086872
	175	0.348500	27.067795	-49.652843
	176	0.350500	26.709442	194.153376
	177	0.352500	26.350250	350.593138
	178	0.354500	25.993576	110.886225
	179	0.356500	25.638580	-13.860778
	180	0.358500	25.265961	-104.660404
	181	0.360500	24.919357	-97.486619
	182	0.362500	24.553452	-172.427055
	183	0.364500	24.201813	-186.928350
	184	0.366500	23.832550	53.367839
	185	0.368500	23.483429	200.481680
	186	0.370500	23.120880	90.440937
	187	0.372500	22.763367	-316.850726
	188	0.374500	22.398300	-289.001067
	189	0.376500	22.047501	-51.574392
	190	0.378500	21.703415	136.020094
	191	0.380500	21.314850	227.127168
	192	0.382500	20.970764	-58.825040
	193	0.384500	20.604019	-291.101961
	194	0.386500	20.254059	-284.056279
	195	0.388500	19.879761	-305.039601
	196	0.390500	19.528122	-1.460378
	197	0.392500	19.169769	230.867785
	198	0.394500	18.808060	41.223645
	199	0.396500	18.445511	102.764475
	200	0.398500	18.089676	305.193325
	201	0.400500	17.726288	176.500740
	202	0.402500	17.370453	-17.550153
	203	0.404500	17.014618	-317.286278
	204	0.406500	16.640320	-426.225332
	205	0.408500	16.289520	-54.828217
	206	0.410500	15.928650	106.684436
	207	0.412500	15.566940	-22.648665
	208	0.414500	15.211105	-163.895374
	209	0.416500	14.882965	-251.492418
	210	0.418500	14.481812	-92.260004
	211	0.420500	14.136887	227.921409
	212	0.422500	13.773499	171.274125
	213	0.424500	13.410950	218.569867
	214	0.426500	13.056793	-9.735852
	215	0.428500	12.696762	-112.423465
	216	0.430500	12.335052	-226.563514
	217	0.432500	11.976700	-201.685851
	218	0.434500	11.620026	-273.167498
	219	0.436500	11.253281	-76.144607
	220	0.438500	10.899963	107.914228
	221	0.440500	10.536575	163.075513
	222	0.442500	10.169830	93.259209
	223	0.444500	9.825745	-66.946790
	224	0.446500	9.459839	-371.064047
	225	0.448500	9.104843	-200.379197
	226	0.450500	8.738937	217.698765
	227	0.452500	8.392334	251.210590
	228	0.454500	7.981949	139.735090
	229	0.456500	7.686539	-15.936052
	230	0.458500	7.296295	-192.308689
	231	0.460500	6.946335	-175.655258
	232	0.462500	6.565323	-76.144607
	233	0.464500	6.228790	29.105072
	234	0.466500	5.860367	129.384343
	235	0.468500	5.503693	22.315597
	236	0.470500	5.140305	60.951555
	237	0.472500	4.781113	-272.142671
	238	0.474500	4.428635	-436.781045
	239	0.476500	4.066086	-379.877555
	240	0.478500	3.704376	-90.287213
	241	0.480500	3.349380	225.000653
	242	0.482500	2.992706	456.995747
	243	0.484500	2.625961	109.425847
	244	0.486500	2.270966	-154.005799
	245	0.488500	1.905899	-84.701908
	246	0.490500	1.543350	0.307448
	247	0.492500	1.178284	-94.668346
	248	0.494500	0.820770	-51.728116
	249	0.496500	0.474167	-137.326748
	250	0.498500	0.112457	13.783916
	251	0.500500	-0.226593	190.745828
	252	0.502500	-0.615997	-92.849279
	253	0.504500	-0.960922	-429.581639
	254	0.506500	-1.323471	-298.173264
	255	0.508500	-1.681824	-79.244707
	256	0.510500	-2.046051	458.507366
	257	0.512500	-2.397690	269.170674
	258	0.514500	-2.755203	-141.041744
	259	0.516500	-3.116074	-295.226888
	260	0.518500	-3.478622	-141.502916
	261	0.520500	-3.840332	-103.686819
	262	0.522500	-4.187775	-3.612513
	263	0.524500	-4.556198	29.181934
	264	0.526500	-4.911194	-12.118573
	265	0.528500	-5.272903	64.999619
	266	0.530500	-5.614471	-107.862987
	267	0.532500	-6.002197	-206.630639
	268	0.534500	-6.343765	-138.120989
	269	0.536500	-6.712189	-113.858222
	270	0.538500	-7.072220	-223.796482
	271	0.540500	-7.428055	86.495355
	272	0.542500	-7.793121	230.739681
	273	0.544500	-8.148117	180.984356
	274	0.546500	-8.512344	-208.757154
	275	0.548500	-8.854752	-339.166323
	276	0.550500	-9.229889	-40.455025
	277	0.552500	-9.584885	138.530919
	278	0.554500	-9.946594	337.577842
	279	0.556500	-10.303268	275.703943
	280	0.558500	-10.670853	23.263561
	281	0.560500	-11.026688	-176.090810
	282	0.562500	-11.386719	-386.769513
	283	0.564500	-11.739197	-411.826520
	284	0.566500	-12.099228	-353.103963
	285	0.568500	-12.458420	-227.306513
	286	0.570500	-12.779846	14.578157
	287	0.572500	-13.192749	284.824899
	288	0.574500	-13.534317	288.667998
	289	0.576500	-13.893509	-100.099926
	290	0.578500	-14.246826	-275.217151
	291	0.580500	-14.616928	-100.048685
	292	0.582500	-14.972763	24.467732
	293	0.584500	-15.333633	12.784710
	294	0.586500	-15.695343	-50.421463
	295	0.588500	-16.044464	-8.813508
	296	0.590500	-16.405334	220.824485
	297	0.592500	-16.762848	-63.744207
	298	0.594500	-17.124557	-347.083107
	299	0.596500	-17.469482	-332.838019
	300	0.598500	-17.853851	-205.349606
	301	0.600500	-18.196259	-10.683816
	302	0.602500	-18.563843	159.334897
	303	0.604500	-18.923035	160.052275
	304	0.606500	-19.289780	222.233622
	305	0.608500	-19.622955	-57.928317
	306	0.610500	-19.998093	-333.734743
	307	0.612500	-20.358963	-370.269806
	308	0.614500	-20.717316	-212.344046
	309	0.616500	-21.086578	-3.356307
	310	0.618500	-21.424789	59.311832
	311	0.620500	-21.799088	60.823451
	312	0.622500	-22.153244	201.250300
	313	0.624500	-22.504883	100.484236
	314	0.626500	-22.863235	-275.370875
	315	0.628500	-23.227463	-633.137798
	316	0.630500	-23.587494	-418.487892
	317	0.632500	-23.946686	-173.913053
	318	0.634500	-24.310074	70.482441
	319	0.636500	-24.664230	330.660263
	320	0.638500	-25.027618	264.892024
	321	0.640500	-25.384293	232.430645
	322	0.642500	-25.745163	-9.069714
	323	0.644500	-26.090927	-405.600699
	324	0.646500	-26.510544	-316.389554
	325	0.648500	-26.800919	-215.649112
	326	0.650500	-27.186127	-81.396843
	327	0.652500	-27.532730	76.810745
	328	0.654500	-27.907867	22.213114
	329	0.656500	-28.262863	-94.284036
	330	0.658500	-28.619537	-241.551601
	331	0.660500	-28.978729	-314.032453
	332	0.662500	-29.335403	-64.026034
	333	0.664500	-29.707184	-326.868405
	334	0.666500	-30.049591	-496.246601
	335	0.668500	-30.412979	-268.145848
	336	0.670500	-30.774689	28.438935
	337	0.672500	-31.135559	302.451914
	338	0.674500	-31.492233	168.737680
	339	0.676500	-31.862335	-233.276127
	340	0.678500	-32.217331	-412.518278
	341	0.680500	-32.570648	-467.858908
	342	0.682500	-32.943268	-415.977067
	343	0.684500	-33.273926	-283.543866
	344	0.686500	-33.674240	-533.806492
	345	0.688500	-33.999023	-588.019812
	346	0.690500	-34.375000	-411.749658
	347	0.692500	-34.716568	-227.485857
	348	0.694500	-35.099258	-338.269600
	349	0.696500	-35.447540	-791.960281
	350	0.698500	-35.809250	-1101.201671
	351	0.700500	-36.161728	-1067.536121
	352	0.702500	-36.537704	-1088.109513
	353	0.704500	-36.894379	-1139.402078
	354	0.706500	-37.251053	-1409.341372
	355	0.708500	-37.612762	-1657.836173
	356	0.710500	-37.969437	-1869.975254
	357	0.712500	-38.331146	-2291.947556
	358	0.714500	-38.676910	-2850.426745
	359	0.716500	-39.039459	-3595.245008
	360	0.718500	-39.399490	-4577.208119
	361	0.720500	-39.756165	-5248.700048
	362	0.722500	-40.095215	-5939.868645
	363	0.724500	-40.455246	-6729.779274
	364	0.726500	-40.836258	-7528.349686
	365	0.728500	-41.189575	-8197.894445
	366	0.730500	-41.554642	-8458.354094
	367	0.732500	-41.905441	-8263.227133
	368	0.734500	-42.273865	-7219.825675
	369	0.736500	-42.620468	-5567.805392
	370	0.738500	-42.980499	-3881.069113
	371	0.740500	-43.333817	-2505.290808
	372	0.742500	-43.700562	-1410.289337
	373	0.744500	-44.054718	-911.250083
	374	0.746500	-44.416428	-414.491069
	375	0.748500	-44.777298	-455.509749
	376	0.750500	-45.143204	-528.144325
	377	0.752500	-45.392456	-446.337552
	378	0.754500	-45.381546	-475.647589
	379	0.756500	-45.238876	-647.664713
	380	0.758500	-45.004730	-574.594585
	381	0.760500	-44.726105	-516.358821
	382	0.762500	-44.371948	-284.210003
	383	0.764500	-44.094162	-123.261005
	384	0.766500	-43.735809	44.682434
	385	0.768500	-43.398438	142.476501
	386	0.770500	-43.036728	148.779184
	387	0.772500	-42.683411	139.888814
	388	0.774500	-42.326736	-217.852489
	389	0.776500	-41.975098	-348.312899
	390	0.778500	-41.615906	-390.663853
	391	0.780500	-41.250839	-362.455505
	392	0.782500	-40.897522	-117.009563
	393	0.784500	-40.537491	-23.212320
	394	0.786500	-40.182495	-28.951348
	395	0.788500	-39.809875	224.616343
	396	0.790500	-39.472504	357.510717
	397	0.792500	-39.107437	206.605018
	398	0.794500	-38.748245	-4.278651
	399	0.796500	-38.392410	-75.606573
	400	0.798500	-38.038254	-188.849899
	401	0.800500	-37.691650	-263.918439
	402	0.802500	-37.298050	-191.411965
	403	0.804500	-36.963196	-138.735884
	404	0.806500	-36.596451	77.630606
	405	0.808500	-36.252365	97.870929
	406	0.810500	-35.870514	-4.996029
	407	0.812500	-35.524750	157.592692
	408	0.814500	-35.157166	209.243946
	409	0.816500	-34.804688	295.585577
	410	0.818500	-34.440460	79.833983
	411	0.820500	-34.090500	-221.593105
	412	0.822500	-33.725433	-247.034422
	413	0.824500	-33.367920	-98.101515
	414	0.826500	-33.012085	-42.709643
	415	0.828500	-32.641144	-19.676668
	416	0.830500	-32.290344	-78.578570
	417	0.832500	-31.926117	-73.095749
	418	0.834500	-31.571960	327.688266
	419	0.836500	-31.198502	462.196742
	420	0.838500	-30.864487	349.055898
	421	0.840500	-30.504456	75.990883
	422	0.842500	-30.133514	-110.040743
	423	0.844500	-29.770966	-206.118225
	424	0.846500	-29.416809	-65.716998
	425	0.848500	-29.065170	-169.326955
	426	0.850500	-28.695908	-159.770448
	427	0.852500	-28.342590	-205.170261
	428	0.854500	-27.977524	39.430199
	429	0.856500	-27.624207	63.513621
	430	0.858500	-27.253265	-21.803183
	431	0.860500	-26.900787	143.962499
	432	0.862500	-26.537399	270.631052
	433	0.864500	-26.185760	378.212212
	434	0.866500	-25.819016	381.184208
	435	0.868500	-25.467377	-18.318773
	436	0.870500	-25.103149	-179.908288
	437	0.872500	-24.740601	-258.538100
	438	0.874500	-24.383926	-155.158729
	439	0.876500	-24.010468	-212.702735
	440	0.878500	-23.673935	-45.246089
	441	0.880500	-23.293762	-103.302509
	442	0.882500	-22.956390	147.882461
	443	0.884500	-22.582092	225.718032
	444	0.886500	-22.231293	264.123404
	445	0.888500	-21.873779	134.508475
	446	0.890500	-21.506195	296.917851
	447	0.892500	-21.145325	185.493592
	448	0.894500	-20.792847	233.916644
	449	0.896500	-20.434494	-84.087013
	450	0.898500	-20.071106	-217.980592
	451	0.900500	-19.709396	-147.600633
	452	0.902500	-19.354401	-144.167465
	453	0.904500	-19.000244	-75.350367
	454	0.906500	-18.624268	-62.181347
	455	0.908500	-18.273468	-85.777976
	456	0.910500	-17.909241	37.021857
	457	0.912500	-17.548370	56.211732
	458	0.914500	-17.179108	65.793860
	459	0.916500	-16.797256	297.097196
	460	0.918500	-16.485901	326.535337
	461	0.920500	-16.109924	252.824692
	462	0.922500	-15.755768	328.994920
	463	0.924500	-15.386505	162.460617
	464	0.926500	-15.043259	-46.732087
	465	0.928500	-14.680710	-333.478536
	466	0.930500	-14.313965	-484.691683
	467	0.932500	-13.953094	-342.112699
	468	0.934500	-13.596420	13.092158
	469	0.936500	-13.243103	142.860811
	470	0.938500	-12.883911	194.230238
	471	0.940500	-12.523880	182.342251
	472	0.942500	-12.158813	70.021269
	473	0.944500	-11.815567	179.728944
	474	0.946500	-11.445465	243.703736
	475	0.948500	-11.088791	227.408995
	476	0.950500	-10.725403	125.618106
	477	0.952500	-10.368729	74.069334
	478	0.954500	-9.986038	-112.884637
	479	0.956500	-9.649506	-141.144227
	480	0.958500	-9.286957	-196.279891
	481	0.960500	-8.930283	-169.788127
	482	0.962500	-8.566055	-195.434409
	483	0.964500	-8.205185	-147.036979
	484	0.966500	-7.847672	-28.157107
	485	0.968500	-7.490997	186.697764
	486	0.970500	-7.131805	323.255892
	487	0.972500	-6.769257	159.949793
	488	0.974500	-6.415100	219.005418
	489	0.976500	-6.046677	304.270981
	490	0.978500	-5.694199	303.502361
	491	0.980500	-5.332489	106.018299
	492	0.982500	-4.971619	-48.141224
	493	0.984500	-4.613266	-138.454057
	494	0.986500	-4.251556	-232.943058
	495	0.988500	-3.891525	-42.965850
	496	0.990500	-3.524780	76.657021
	497	0.992500	-3.226013	19.420462
	498	0.994500	-2.787933	-132.957126
	499	0.996500	-2.461472	-394.727703
	500	0.998500	-2.092209	-469.021420
	501	1.000500	-1.748123	-207.051229

---> Task: 1	Hysteresis
---> Trace: 8
Point Number	Time (ms)		Voltage	mA/cm2
	1	0.000500	-0.983582	248.287847
	2	0.002500	-0.939102	160.439537
	3	0.004500	-0.736008	42.735990
	4	0.006500	-0.511093	-298.011928
	5	0.008500	-0.198059	-274.346048
	6	0.010500	0.118332	-141.374813
	7	0.012500	0.456543	107.196850
	8	0.014500	0.795593	439.086904
	9	0.016500	1.153946	428.198123
	10	0.018500	1.508102	49.550360
	11	0.020500	1.865616	-226.384169
	12	0.022500	2.219772	-239.706913
	13	0.024500	2.570572	-225.154377
	14	0.026500	2.949905	41.069921
	15	0.028500	3.293152	211.370461
	16	0.030500	3.663254	192.308689
	17	0.032500	4.019089	310.829871
	18	0.034500	4.399261	-22.494941
	19	0.036500	4.738312	-263.201060
	20	0.038500	5.105057	-160.359723
	21	0.040500	5.455017	-5.790270
	22	0.042500	5.810013	274.346048
	23	0.044500	6.180115	443.826727
	24	0.046500	6.531754	234.557160
	25	0.048500	6.892624	-174.041157
	26	0.050500	7.254333	-335.451327
	27	0.052500	7.628632	-362.353022
	28	0.054500	7.971039	-140.093780
	29	0.056500	8.331070	215.572250
	30	0.058500	8.687744	486.049578
	31	0.060500	9.055328	344.239214
	32	0.062500	9.404449	49.140430
	33	0.064500	9.763641	-254.387552
	34	0.066500	10.129547	-264.046542
	35	0.068500	10.487900	-45.604778
	36	0.070500	10.847931	99.356927
	37	0.072500	11.209641	257.410791
	38	0.074500	11.614151	216.033422
	39	0.076500	11.905365	45.553537
	40	0.078500	12.292252	-161.000240
	41	0.080500	12.639694	-379.698210
	42	0.082500	13.013153	-27.029798
	43	0.084500	13.359756	184.391904
	44	0.086500	13.718948	274.499772
	45	0.088500	14.080658	248.725386
	46	0.090500	14.430618	127.719000
	47	0.092500	14.798203	-80.935671
	48	0.094500	15.157394	-93.438554
	49	0.096500	15.517426	-329.866023
	50	0.098500	15.876617	99.971823
	51	0.100500	16.251755	313.494420
	52	0.102500	16.595001	398.631879
	53	0.104500	16.961746	216.366490
	54	0.106500	17.314224	-139.888814
	55	0.108500	17.671738	-352.309722
	56	0.110500	18.025894	-214.726768
	57	0.112500	18.398514	51.010738
	58	0.114500	18.765259	521.995367
	59	0.116500	19.112701	454.484922
	60	0.118500	19.476089	48.961085
	61	0.120500	19.814301	-291.486271
	62	0.122500	20.201187	-295.047543
	63	0.124500	20.550308	-106.300126
	64	0.126500	20.919571	65.947584
	65	0.128500	21.266174	125.080072
	66	0.130500	21.634598	433.450359
	67	0.132500	21.988754	432.015602
	68	0.134500	22.351303	138.325954
	69	0.136500	22.712173	-331.787572
	70	0.138500	23.063812	-436.729804
	71	0.140500	23.430557	-162.383755
	72	0.142500	23.783875	457.969332
	73	0.144500	24.141388	175.091604
	74	0.146500	24.503937	203.197470
	75	0.148500	24.872360	190.745828
	76	0.150500	25.180359	-23.032975
	77	0.152500	25.583191	-250.518833
	78	0.154500	25.934830	-155.876107
	79	0.156500	26.299057	-61.130899
	80	0.158500	26.645660	552.560816
	81	0.160500	27.004013	355.922236
	82	0.162500	27.366562	31.103484
	83	0.164500	27.727432	-232.200059
	84	0.166500	28.084946	-106.248885
	85	0.168500	28.432388	37.816097
	86	0.170500	28.803329	144.756740
	87	0.172500	29.160843	284.158762
	88	0.174500	29.514160	268.350813
	89	0.176500	29.871674	80.090189
	90	0.178500	30.240936	-73.531300
	91	0.180500	30.603485	-245.061632
	92	0.182500	30.955124	-42.888988
	93	0.184500	31.307602	96.128724
	94	0.186500	31.674347	235.581987
	95	0.188500	32.054520	282.519039
	96	0.190500	32.380142	245.779010
	97	0.192500	32.758636	27.900901
	98	0.194500	33.101883	-89.749179
	99	0.196500	33.482056	-511.106585
	100	0.198500	33.816071	-35.715203
	101	0.200500	34.188690	482.949478
	102	0.202500	34.538651	767.185101
	103	0.204500	34.900360	353.718859
	104	0.206500	35.258713	75.478470
	105	0.208500	35.619583	-288.667998
	106	0.210500	35.981293	39.097130
	107	0.212500	36.337967	215.725974
	108	0.214500	36.702194	590.069465
	109	0.216500	37.052155	898.567856
	110	0.218500	37.422256	1039.097187
	111	0.220500	37.776413	909.149189
	112	0.222500	38.142319	1004.432431
	113	0.224500	38.493958	1279.726444
	114	0.226500	38.874969	2265.993825
	115	0.228500	39.238358	3649.535191
	116	0.230500	39.569016	5357.434137
	117	0.232500	39.940796	7320.822324
	118	0.234500	40.294113	8873.818748
	119	0.236500	40.670090	10049.012891
	120	0.238500	41.020889	10749.251203
	121	0.240500	41.383438	10836.668901
	122	0.242500	41.738434	10253.465773
	123	0.244500	42.101822	9110.194975
	124	0.246500	42.462692	6919.705241
	125	0.248500	42.820206	4527.247828
	126	0.250500	43.175201	2612.564519
	127	0.252500	43.423615	1428.172559
	128	0.254500	43.426971	1059.158165
	129	0.256500	43.259964	871.589299
	130	0.258500	43.038406	775.870506
	131	0.260500	42.753067	800.671307
	132	0.262500	42.436676	809.945986
	133	0.264500	42.101822	461.248777
	134	0.266500	41.789627	267.428469
	135	0.268500	41.420364	-94.437760
	136	0.270500	41.062851	-162.588721
	137	0.272500	40.702820	160.897757
	138	0.274500	40.349503	453.972509
	139	0.276500	40.002899	382.337138
	140	0.278500	39.634476	115.600427
	141	0.280500	39.275284	-169.660023
	142	0.282500	38.911896	-204.196676
	143	0.284500	38.564453	82.114222
	144	0.286500	38.196869	154.979384
	145	0.288500	37.846909	407.189180
	146	0.290500	37.480164	369.449945
	147	0.292500	37.126846	182.239768
	148	0.294500	36.764297	-242.422703
	149	0.296500	36.405106	-278.112285
	150	0.298500	36.044235	-241.269774
	151	0.300500	35.692596	-85.316804
	152	0.302500	35.334244	130.152963
	153	0.304500	34.928894	284.184382
	154	0.306500	34.634323	285.029864
	155	0.308500	34.245758	182.495975
	156	0.310500	33.897476	-129.281860
	157	0.312500	33.527374	-381.312312
	158	0.314500	33.181610	-282.519039
	159	0.316500	32.814865	3.868720
	160	0.318500	32.460709	201.506506
	161	0.320500	32.098160	429.094846
	162	0.322500	31.740646	195.613754
	163	0.324500	31.384811	-94.668346
	164	0.326500	31.019745	-371.371495
	165	0.328500	30.659714	-407.983421
	166	0.330500	30.297165	-245.548424
	167	0.332500	29.945526	156.516624
	168	0.334500	29.578781	221.977415
	169	0.336500	29.231339	213.676321
	170	0.338500	28.865433	66.331894
	171	0.340500	28.501205	171.940262
	172	0.342500	28.157959	-141.502916
	173	0.344500	27.770233	-380.953622
	174	0.346500	27.433701	-406.420560
	175	0.348500	27.071991	-97.051067
	176	0.350500	26.726227	231.738887
	177	0.352500	26.341019	270.477328
	178	0.354500	25.993576	153.185938
	179	0.356500	25.631027	-42.863367
	180	0.358500	25.270157	-153.237179
	181	0.360500	24.900055	-215.982180
	182	0.362500	24.555130	-298.122022
	183	0.364500	24.195099	-22.341217
	184	0.366500	23.836746	152.801628
	185	0.368500	23.478394	133.867959
	186	0.370500	23.111649	95.616310
	187	0.372500	22.766724	-65.127723
	188	0.374500	22.393265	-262.150613
	189	0.376500	22.040787	-229.484269
	190	0.378500	21.683273	-271.937706
	191	0.380500	21.340027	21.751942
	192	0.382500	20.954819	295.816163
	193	0.384500	20.609894	316.030865
	194	0.386500	20.233917	143.193880
	195	0.388500	19.865494	-183.572043
	196	0.390500	19.526443	-264.661438
	197	0.392500	19.162216	-346.545073
	198	0.394500	18.805542	-212.241564
	199	0.396500	18.443832	-4.611719
	200	0.398500	18.090515	207.706706
	201	0.400500	17.722092	26.978557
	202	0.402500	17.367096	45.758502
	203	0.404500	17.004547	-347.672383
	204	0.406500	16.641159	-154.133902
	205	0.408500	16.277771	-128.718206
	206	0.410500	15.932846	126.796656
	207	0.412500	15.566940	137.070541
	208	0.414500	15.211945	328.303162
	209	0.416500	14.851074	35.535858
	210	0.418500	14.490204	-3.535651
	211	0.420500	14.177170	-176.167672
	212	0.422500	13.755035	-260.305925
	213	0.424500	13.418503	-339.832460
	214	0.426500	13.047562	-100.714822
	215	0.428500	12.700958	273.859256
	216	0.430500	12.330017	263.508508
	217	0.432500	11.978378	-97.691584
	218	0.434500	11.611633	-261.305131
	219	0.436500	11.250763	-87.802008
	220	0.438500	10.898285	-74.018092
	221	0.440500	10.534897	-4.073685
	222	0.442500	10.174866	-255.514862
	223	0.444500	9.815674	-59.286212
	224	0.446500	9.474106	135.046509
	225	0.448500	9.095612	-12.323538
	226	0.450500	8.741455	-82.139842
	227	0.452500	8.376389	53.009150
	228	0.454500	8.020554	25.159490
	229	0.456500	7.662201	-53.470321
	230	0.458500	7.297974	-57.979558
	231	0.460500	6.949692	-65.332688
	232	0.462500	6.581268	30.001795
	233	0.464500	6.222076	12.195435
	234	0.466500	5.849457	0.333069
	235	0.468500	5.511246	202.685057
	236	0.470500	5.141144	101.560304
	237	0.472500	4.783630	-183.469560
	238	0.474500	4.430313	-126.771035
	239	0.476500	4.066925	-3.458789
	240	0.478500	3.705215	-24.800801
	241	0.480500	3.347702	-85.931700
	242	0.482500	2.985153	-197.125373
	243	0.484500	2.620087	-39.097130
	244	0.486500	2.271805	47.782535
	245	0.488500	1.903381	21.598218
	246	0.490500	1.545029	-259.152996
	247	0.492500	1.186676	-51.190083
	248	0.494500	0.848465	71.302302
	249	0.496500	0.426331	136.481266
	250	0.498500	0.110779	-100.842925
	251	0.500500	-0.250092	-129.051274
	252	0.502500	-0.602570	-172.990709
	253	0.504500	-0.972672	146.960117
	254	0.506500	-1.330185	92.874900
	255	0.508500	-1.678467	271.835223
	256	0.510500	-2.041016	-146.422083
	257	0.512500	-2.398529	-85.803597
	258	0.514500	-2.767792	-206.374432
	259	0.516500	-3.112717	-195.588133
	260	0.518500	-3.483658	-177.679291
	261	0.520500	-3.836975	141.528537
	262	0.522500	-4.196167	-160.590309
	263	0.524500	-4.552002	52.419874
	264	0.526500	-4.913712	-171.402228
	265	0.528500	-5.275421	-91.875694
	266	0.530500	-5.629578	-206.861225
	267	0.532500	-5.994644	-128.923171
	268	0.534500	-6.321945	-426.122850
	269	0.536500	-6.734009	1.152930
	270	0.538500	-7.062988	163.485444
	271	0.540500	-7.430573	351.412999
	272	0.542500	-7.767105	91.568246
	273	0.544500	-8.153152	41.351748
	274	0.546500	-8.506470	-130.844721
	275	0.548500	-8.873215	-106.274506
	276	0.550500	-9.231567	-323.358374
	277	0.552500	-9.591599	-267.864021
	278	0.554500	-9.954147	-189.234209
	279	0.556500	-10.307465	-79.936465
	280	0.558500	-10.667496	150.342044
	281	0.560500	-11.026688	343.803663
	282	0.562500	-11.396790	336.450533
	283	0.564500	-11.739197	167.149199
	284	0.566500	-12.103424	-309.138907
	285	0.568500	-12.461777	-358.868612
	286	0.570500	-12.820969	-554.200539
	287	0.572500	-13.170929	-443.416796
	288	0.574500	-13.516693	-171.607194
	289	0.576500	-13.909454	275.037806
	290	0.578500	-14.255219	460.992570
	291	0.580500	-14.613571	233.609196
	292	0.582500	-14.962692	-20.163461
	293	0.584500	-15.338669	-49.242912
	294	0.586500	-15.689468	-283.415762
	295	0.588500	-16.049500	-384.104964
	296	0.590500	-16.398621	-384.566136
	297	0.592500	-16.767044	-256.462826
	298	0.594500	-17.131271	-11.734263
	299	0.596500	-17.487106	74.428023
	300	0.598500	-17.847977	411.160383
	301	0.600500	-18.197937	439.061284
	302	0.602500	-18.575592	220.926968
	303	0.604500	-18.921356	-38.097924
	304	0.606500	-19.287262	-402.910530
	305	0.608500	-19.641418	-477.312932
	306	0.610500	-20.003128	-527.580671
	307	0.612500	-20.326233	-353.565135
	308	0.614500	-20.729904	-128.692585
	309	0.616500	-21.069794	272.962532
	310	0.618500	-21.438217	354.999892
	311	0.620500	-21.797409	584.791609
	312	0.622500	-22.154083	90.389695
	313	0.624500	-22.512436	-251.671762
	314	0.626500	-22.874146	-472.419386
	315	0.628500	-23.230820	-391.714301
	316	0.630500	-23.581619	-446.004483
	317	0.632500	-23.954239	-347.236831
	318	0.634500	-24.308395	-303.041190
	319	0.636500	-24.665909	45.066744
	320	0.638500	-25.028458	348.799692
	321	0.640500	-25.388489	410.904176
	322	0.642500	-25.748520	455.125439
	323	0.644500	-26.107712	216.648317
	324	0.646500	-26.467743	-157.695174
	325	0.648500	-26.820221	-394.788780
	326	0.650500	-27.226410	-348.107934
	327	0.652500	-27.515106	-533.524664
	328	0.654500	-27.906189	-521.585436
	329	0.656500	-28.258667	-366.811017
	330	0.658500	-28.632126	-34.229204
	331	0.660500	-28.970337	276.754390
	332	0.662500	-29.347992	309.651320
	333	0.664500	-29.697952	285.824105
	334	0.666500	-30.058823	56.698525
	335	0.668500	-30.417175	-155.030625
	336	0.670500	-30.770493	-413.978656
	337	0.672500	-31.133881	-411.672796
	338	0.674500	-31.491394	-638.056965
	339	0.676500	-31.850586	-705.721133
	340	0.678500	-32.203064	-624.836704
	341	0.680500	-32.574005	-196.817925
	342	0.682500	-32.929001	-180.497563
	343	0.684500	-33.289032	104.276094
	344	0.686500	-33.656616	137.249886
	345	0.688500	-34.018326	-66.844307
	346	0.690500	-34.381714	-358.023130
	347	0.692500	-34.724960	-641.541375
	348	0.694500	-35.085831	-968.127953
	349	0.696500	-35.431595	-936.178988
	350	0.698500	-35.817642	-1276.446999
	351	0.700500	-36.163406	-1550.075668
	352	0.702500	-36.525116	-1331.582663
	353	0.704500	-36.885147	-1220.850162
	354	0.706500	-37.251053	-1312.162202
	355	0.708500	-37.601852	-1378.340371
	356	0.710500	-37.969437	-1977.146482
	357	0.712500	-38.321075	-2564.243951
	358	0.714500	-38.681946	-2950.321706
	359	0.716500	-39.044495	-3715.995188
	360	0.718500	-39.394455	-4564.858960
	361	0.720500	-39.760361	-5519.126135
	362	0.722500	-40.118713	-6567.421139
	363	0.724500	-40.478745	-7546.104805
	364	0.726500	-40.813599	-8162.384207
	365	0.728500	-41.198807	-8440.445251
	366	0.730500	-41.544571	-8199.815994
	367	0.732500	-41.914673	-7422.920662
	368	0.734500	-42.274704	-6181.369005
	369	0.736500	-42.629700	-4586.226592
	370	0.738500	-42.995605	-2818.170332
	371	0.740500	-43.348923	-1846.173659
	372	0.742500	-43.703918	-1418.206121
	373	0.744500	-44.059753	-949.732318
	374	0.746500	-44.434052	-700.443277
	375	0.748500	-44.785690	-641.746340
	376	0.750500	-45.140686	-550.331819
	377	0.752500	-45.392456	-547.539166
	378	0.754500	-45.397491	-443.852348
	379	0.756500	-45.239716	-276.241977
	380	0.758500	-45.009766	-372.370701
	381	0.760500	-44.726105	-300.786571
	382	0.762500	-44.418106	-351.541103
	383	0.764500	-44.089127	-514.027341
	384	0.766500	-43.703918	-314.929177
	385	0.768500	-43.415222	-141.502916
	386	0.770500	-43.040085	56.929111
	387	0.772500	-42.695999	-23.084216
	388	0.774500	-42.323380	-5.918373
	389	0.776500	-41.978455	-144.346809
	390	0.778500	-41.614227	-130.742238
	391	0.780500	-41.260910	-82.191084
	392	0.782500	-40.907593	175.168466
	393	0.784500	-40.534973	96.717999
	394	0.786500	-40.185852	-62.873104
	395	0.788500	-39.819107	-428.018778
	396	0.790500	-39.466629	-228.869373
	397	0.792500	-39.086456	-35.740823
	398	0.794500	-38.755798	120.570835
	399	0.796500	-38.388214	-36.611926
	400	0.798500	-38.036575	-175.808982
	401	0.800500	-37.678223	61.950761
	402	0.802500	-37.322388	208.680292
	403	0.804500	-36.952286	266.403643
	404	0.806500	-36.593933	282.724005
	405	0.808500	-36.239777	193.564101
	406	0.810500	-35.878906	108.477883
	407	0.812500	-35.532303	-117.240149
	408	0.814500	-35.147095	-32.589482
	409	0.816500	-34.804688	-103.686819
	410	0.818500	-34.442978	-104.660404
	411	0.820500	-34.085464	-305.731359
	412	0.822500	-33.722076	-314.980418
	413	0.824500	-33.372116	-144.193085
	414	0.826500	-33.005371	47.116397
	415	0.828500	-32.647018	-128.743826
	416	0.830500	-32.302933	209.500153
	417	0.832500	-31.921921	187.389521
	418	0.834500	-31.576996	627.706218
	419	0.836500	-31.207733	312.802662
	420	0.838500	-30.853577	247.213767
	421	0.840500	-30.485153	349.747656
	422	0.842500	-30.183868	248.699766
	423	0.844500	-29.764252	-172.042745
	424	0.846500	-29.421005	-383.874378
	425	0.848500	-29.051743	-744.946367
	426	0.850500	-28.711014	-382.721448
	427	0.852500	-28.342590	-226.102342
	428	0.854500	-27.980881	-149.932114
	429	0.856500	-27.624207	27.004178
	430	0.858500	-27.260818	194.947617
	431	0.860500	-26.908340	277.369286
	432	0.862500	-26.534882	443.186210
	433	0.864500	-26.182404	393.840815
	434	0.866500	-25.820694	557.146915
	435	0.868500	-25.462341	450.026927
	436	0.870500	-25.099792	107.478677
	437	0.872500	-24.743118	-158.924966
	438	0.874500	-24.382248	-292.280511
	439	0.876500	-24.028091	-287.515068
	440	0.878500	-23.662186	-231.457060
	441	0.880500	-23.263550	-413.671208
	442	0.882500	-22.963943	-332.095020
	443	0.884500	-22.575378	-374.907146
	444	0.886500	-22.231293	-144.269947
	445	0.888500	-21.848602	93.797243
	446	0.890500	-21.518784	442.315108
	447	0.892500	-21.148682	534.575112
	448	0.894500	-20.792847	165.714441
	449	0.896500	-20.429459	137.557334
	450	0.898500	-20.074463	305.167704
	451	0.900500	-19.716110	416.720067
	452	0.902500	-19.351044	361.379437
	453	0.904500	-18.990173	-47.731293
	454	0.906500	-18.634338	-75.837159
	455	0.908500	-18.279343	44.656814
	456	0.910500	-17.906723	-107.965469
	457	0.912500	-17.556763	-344.828489
	458	0.914500	-17.192535	-528.041843
	459	0.916500	-16.835861	-637.313966
	460	0.918500	-16.459885	-545.720099
	461	0.920500	-16.098175	33.050654
	462	0.922500	-15.761642	216.033422
	463	0.924500	-15.391541	265.506920
	464	0.926500	-15.033188	197.022890
	465	0.928500	-14.668121	256.129757
	466	0.930500	-14.320679	354.461858
	467	0.932500	-13.954773	484.563579
	468	0.934500	-13.593063	250.211385
	469	0.936500	-13.227997	420.511925
	470	0.938500	-12.881393	273.526187
	471	0.940500	-12.523041	352.719653
	472	0.942500	-12.161331	7.916785
	473	0.944500	-11.804657	-266.839194
	474	0.946500	-11.444626	-386.769513
	475	0.948500	-11.095505	-542.440655
	476	0.950500	-10.726242	-496.528429
	477	0.952500	-10.363693	-266.916056
	478	0.954500	-10.009537	-302.246949
	479	0.956500	-9.650345	-126.899139
	480	0.958500	-9.255905	194.845134
	481	0.960500	-8.934479	170.377402
	482	0.962500	-8.566895	219.799659
	483	0.964500	-8.212738	389.715889
	484	0.966500	-7.848511	525.479777
	485	0.968500	-7.494354	421.383027
	486	0.970500	-7.132645	340.396115
	487	0.972500	-6.768417	151.443733
	488	0.974500	-6.413422	199.508095
	489	0.976500	-6.044998	230.944647
	490	0.978500	-5.690002	104.199232
	491	0.980500	-5.325775	-179.575220
	492	0.982500	-4.972458	-259.024892
	493	0.984500	-4.609070	-283.262038
	494	0.986500	-4.250717	-122.799833
	495	0.988500	-3.890686	-223.514655
	496	0.990500	-3.534851	-374.984008
	497	0.992500	-3.177338	-317.849932
	498	0.994500	-2.808075	-9.477974
	499	0.996500	-2.496719	128.301741
	500	0.998500	-2.072067	17.506593
	501	1.000500	-1.741409	-274.006475

---> Task: 1	Hysteresis
---> Trace: 9
Point Number	Time (ms)		Voltage	mA/cm2
	1	0.000500	-0.991135	-263.118561
	2	0.002500	-0.921478	-171.359244
	3	0.004500	-0.760345	-71.453263
	4	0.006500	-0.500183	148.408613
	5	0.008500	-0.203094	111.757327
	6	0.010500	0.120010	188.978003
	7	0.012500	0.452347	167.917818
	8	0.014500	0.798111	107.427436
	9	0.016500	1.164856	-34.485411
	10	0.018500	1.505585	-147.933702
	11	0.020500	1.864777	-35.074686
	12	0.022500	2.206345	276.703149
	13	0.024500	2.588196	23.545388
	14	0.026500	2.941513	-109.323365
	15	0.028500	3.301544	-199.918025
	16	0.030500	3.664932	10.325127
	17	0.032500	4.031677	358.561164
	18	0.034500	4.381638	194.742651
	19	0.036500	4.744186	-253.439588
	20	0.038500	5.099182	-136.096956
	21	0.040500	5.463409	-12.477262
	22	0.042500	5.828476	141.426054
	23	0.044500	6.182632	205.631433
	24	0.046500	6.545181	-136.660611
	25	0.048500	6.896820	96.538654
	26	0.050500	7.277832	211.011772
	27	0.052500	7.581635	217.980592
	28	0.054500	7.977753	26.363661
	29	0.056500	8.334427	-9.069714
	30	0.058500	8.698654	-95.667552
	31	0.060500	9.050293	11.144988
	32	0.062500	9.407806	44.195642
	33	0.064500	9.769516	26.517385
	34	0.066500	10.132904	22.289976
	35	0.068500	10.492935	53.700907
	36	0.070500	10.846252	7.506854
	37	0.072500	11.218033	61.438347
	38	0.074500	11.567993	-17.831981
	39	0.076500	11.929703	33.716791
	40	0.078500	12.285538	39.942612
	41	0.080500	12.653961	19.420462
	42	0.082500	13.008957	42.658402
	43	0.084500	13.368149	20.496530
	44	0.086500	13.723984	-26.773592
	45	0.088500	14.084015	49.832187
	46	0.090500	14.480972	-144.551775
	47	0.092500	14.781418	67.254238
	48	0.094500	15.172501	19.804772
	49	0.096500	15.514069	108.298538
	50	0.098500	15.892563	72.634577
	51	0.100500	16.229935	23.186699
	52	0.102500	16.599197	176.116430
	53	0.104500	16.950836	299.966710
	54	0.106500	17.314224	61.259003
	55	0.108500	17.676773	-40.045095
	56	0.110500	18.030090	-115.959116
	57	0.112500	18.393478	59.824246
	58	0.114500	18.753510	41.326128
	59	0.116500	19.110184	-47.628811
	60	0.118500	19.460144	8.787887
	61	0.120500	19.837799	160.052275
	62	0.122500	20.191116	293.074752
	63	0.124500	20.552826	88.775594
	64	0.126500	20.904465	-224.180792
	65	0.128500	21.280441	-198.201441
	66	0.130500	21.657257	63.231794
	67	0.132500	21.973648	143.526948
	68	0.134500	22.349625	15.884810
	69	0.136500	22.708817	-29.079451
	70	0.138500	23.073044	87.033389
	71	0.140500	23.417130	209.269567
	72	0.142500	23.787231	175.450293
	73	0.144500	24.137192	54.981941
	74	0.146500	24.501419	70.277476
	75	0.148500	24.856415	95.590690
	76	0.150500	25.217285	-38.021062
	77	0.152500	25.575638	-24.595835
	78	0.154500	25.935669	-20.214702
	79	0.156500	26.295700	130.204204
	80	0.158500	26.639786	139.530125
	81	0.160500	27.006531	125.951174
	82	0.162500	27.364044	25.671903
	83	0.164500	27.722397	-24.954525
	84	0.166500	28.081589	23.904078
	85	0.168500	28.470154	241.551601
	86	0.170500	28.792419	166.483061
	87	0.172500	29.155807	-38.456614
	88	0.174500	29.511642	-78.143019
	89	0.176500	29.870834	240.449912
	90	0.178500	30.235062	122.236178
	91	0.180500	30.594254	-111.321776
	92	0.182500	30.955963	-133.073718
	93	0.184500	31.315994	28.259590
	94	0.186500	31.668472	278.342871
	95	0.188500	32.025986	157.157140
	96	0.190500	32.393570	7.301889
	97	0.192500	32.751923	-12.451642
	98	0.194500	33.100204	71.122958
	99	0.196500	33.467789	102.585130
	100	0.198500	33.824463	158.745621
	101	0.200500	34.189529	-8.326715
	102	0.202500	34.547043	249.084075
	103	0.204500	34.920502	289.974652
	104	0.206500	35.218430	377.751040
	105	0.208500	35.649796	246.470768
	106	0.210500	35.982971	91.388901
	107	0.212500	36.351395	135.097750
	108	0.214500	36.689606	562.962805
	109	0.216500	37.067261	307.755391
	110	0.218500	37.423935	255.796689
	111	0.220500	37.784805	573.569759
	112	0.222500	38.147354	1063.693022
	113	0.224500	38.501511	1735.261813
	114	0.226500	38.869095	2422.638552
	115	0.228500	39.224091	3061.797206
	116	0.230500	39.580765	4393.354249
	117	0.232500	39.946671	5987.394973
	118	0.234500	40.314255	7626.118132
	119	0.236500	40.663376	9413.441130
	120	0.238500	41.027603	10776.870276
	121	0.240500	41.385117	11387.180064
	122	0.242500	41.739273	11112.526568
	123	0.244500	42.135391	9661.116069
	124	0.246500	42.442551	7441.751849
	125	0.248500	42.833633	5188.696458
	126	0.250500	43.181076	3139.581536
	127	0.252500	43.451309	2056.852362
	128	0.254500	43.410187	1508.185886
	129	0.256500	43.274231	1219.364164
	130	0.258500	43.040085	956.854862
	131	0.260500	42.758102	748.968811
	132	0.262500	42.435837	505.649384
	133	0.264500	42.113571	579.821201
	134	0.266500	41.767807	350.593138
	135	0.268500	41.418686	220.901347
	136	0.270500	41.067886	274.294807
	137	0.272500	40.708694	166.688027
	138	0.274500	40.357895	5.482822
	139	0.276500	39.991989	227.511478
	140	0.278500	39.641190	102.585130
	141	0.280500	39.279480	175.296569
	142	0.282500	38.936234	60.106073
	143	0.284500	38.574524	-130.152963
	144	0.286500	38.194351	62.565656
	145	0.288500	37.841873	342.983801
	146	0.290500	37.482681	92.516210
	147	0.292500	37.130203	-83.574599
	148	0.294500	36.757584	-67.100514
	149	0.296500	36.407623	179.959530
	150	0.298500	36.047592	256.283481
	151	0.300500	35.700150	125.387520
	152	0.302500	35.325851	-262.253096
	153	0.304500	34.970016	-154.133902
	154	0.306500	34.609985	-47.500707
	155	0.308500	34.241562	170.864195
	156	0.310500	33.882370	123.363487
	157	0.312500	33.523178	-37.329304
	158	0.314500	33.169861	-77.348778
	159	0.316500	32.811508	-18.113808
	160	0.318500	32.446442	-215.367284
	161	0.320500	32.088928	78.757915
	162	0.322500	31.775055	-35.817685
	163	0.324500	31.359634	-108.401021
	164	0.326500	31.023941	-69.765062
	165	0.328500	30.654678	-47.295742
	166	0.330500	30.305557	20.829598
	167	0.332500	29.933777	232.302542
	168	0.334500	29.582138	-126.002415
	169	0.336500	29.227142	-163.306099
	170	0.338500	28.863754	50.652049
	171	0.340500	28.504562	14.731881
	172	0.342500	28.136139	47.218880
	173	0.344500	27.786179	-61.566451
	174	0.346500	27.427826	-70.046890
	175	0.348500	27.077866	35.612720
	176	0.350500	26.711960	-56.954732
	177	0.352500	26.346054	-249.622109
	178	0.354500	25.990219	-52.624840
	179	0.356500	25.631027	56.877870
	180	0.358500	25.278549	300.555985
	181	0.360500	24.884109	111.373017
	182	0.362500	24.575272	-77.886812
	183	0.364500	24.189224	-230.970267
	184	0.366500	23.840103	-175.091604
	185	0.368500	23.467484	96.077482
	186	0.370500	23.127594	-54.828217
	187	0.372500	22.759171	-238.092811
	188	0.374500	22.401657	-292.716063
	189	0.376500	22.042465	-117.368252
	190	0.378500	21.684113	152.442939
	191	0.380500	21.324921	272.142671
	192	0.382500	20.965729	-114.959910
	193	0.384500	20.605698	-119.084837
	194	0.386500	20.245667	-161.077102
	195	0.388500	19.887314	-25.031387
	196	0.390500	19.519730	200.456059
	197	0.392500	19.168091	45.681640
	198	0.394500	18.810577	77.579364
	199	0.396500	18.446350	137.685437
	200	0.398500	18.067856	-2.664549
	201	0.400500	17.720413	-6.225821
	202	0.402500	17.367935	-197.304718
	203	0.404500	17.003708	-200.507300
	204	0.406500	16.662979	-112.039155
	205	0.408500	16.276932	-26.671109
	206	0.410500	15.930328	-45.297330
	207	0.412500	15.568619	119.827836
	208	0.414500	15.211945	-164.382167
	209	0.416500	14.841843	8.762266
	210	0.418500	14.491043	-53.829011
	211	0.420500	14.128494	128.308275
	212	0.422500	13.770981	-148.343633
	213	0.424500	13.408432	-36.355719
	214	0.426500	13.048401	-104.993473
	215	0.428500	12.691727	64.512827
	216	0.430500	12.330856	-14.168226
	217	0.432500	11.979218	-98.203997
	218	0.434500	11.610794	-129.358722
	219	0.436500	11.275101	-6.046476
	220	0.438500	10.884018	-24.185905
	221	0.440500	10.546646	-95.770034
	222	0.442500	10.168991	-47.705673
	223	0.444500	9.819031	-132.561305
	224	0.446500	9.465714	-33.511826
	225	0.448500	9.098969	37.687994
	226	0.450500	8.733902	120.212146
	227	0.452500	8.378067	-12.118573
	228	0.454500	8.024750	-82.319187
	229	0.456500	7.656326	-86.264769
	230	0.458500	7.299652	-248.904731
	231	0.460500	6.931229	-61.976381
	232	0.462500	6.575394	74.043713
	233	0.464500	6.208649	136.711852
	234	0.466500	5.859528	67.997237
	235	0.468500	5.491104	43.247677
	236	0.470500	5.140305	-210.115049
	237	0.472500	4.779434	-119.674112
	238	0.474500	4.426117	-260.152201
	239	0.476500	4.108887	-7.506854
	240	0.478500	3.685074	96.717999
	241	0.480500	3.346024	118.111252
	242	0.482500	2.981796	-123.927142
	243	0.484500	2.635193	-100.099926
	244	0.486500	2.261734	-192.923584
	245	0.488500	1.913452	12.297918
	246	0.490500	1.540833	70.431200
	247	0.492500	1.181641	-17.627015
	248	0.494500	0.823288	-54.956320
	249	0.496500	0.464935	11.964849
	250	0.498500	0.109100	-191.360724
	251	0.500500	-0.249252	52.906667
	252	0.502500	-0.596695	-18.036946
	253	0.504500	-0.976028	-27.414108
	254	0.506500	-1.325989	-84.317598
	255	0.508500	-1.680984	-47.423845
	256	0.510500	-2.041016	-124.439555
	257	0.512500	-2.407761	12.016090
	258	0.514500	-2.754364	62.642518
	259	0.516500	-3.116074	62.949966
	260	0.518500	-3.479462	-121.672524
	261	0.520500	-3.836975	-174.169260
	262	0.522500	-4.209595	20.701495
	263	0.524500	-4.549484	-114.754945
	264	0.526500	-4.925461	-124.926348
	265	0.528500	-5.274582	-117.521976
	266	0.530500	-5.637131	-88.801214
	267	0.532500	-5.987091	73.608162
	268	0.534500	-6.354675	176.449499
	269	0.536500	-6.712189	-276.523804
	270	0.538500	-7.074738	-55.007561
	271	0.540500	-7.444000	-8.403577
	272	0.542500	-7.788925	-114.447497
	273	0.544500	-8.159027	32.589482
	274	0.546500	-8.508987	-280.904938
	275	0.548500	-8.870697	-37.124339
	276	0.550500	-9.215622	244.318632
	277	0.552500	-9.626007	106.453850
	278	0.554500	-9.942398	-8.992852
	279	0.556500	-10.307465	-100.996649
	280	0.558500	-10.666656	-237.272950
	281	0.560500	-11.031723	2.895135
	282	0.562500	-11.388397	-97.256033
	283	0.564500	-11.743393	-83.369634
	284	0.566500	-12.101746	-7.071303
	285	0.568500	-12.462616	29.207555
	286	0.570500	-12.829361	79.987707
	287	0.572500	-13.170090	-114.703704
	288	0.574500	-13.541031	-67.638548
	289	0.576500	-13.895187	-141.759123
	290	0.578500	-14.256058	-1.998412
	291	0.580500	-14.606018	-6.020856
	292	0.582500	-14.971085	-113.832601
	293	0.584500	-15.329437	-254.156967
	294	0.586500	-15.691147	-139.171436
	295	0.588500	-16.047821	-79.347190
	296	0.590500	-16.368408	-11.478057
	297	0.592500	-16.785507	14.219467
	298	0.594500	-17.116165	-142.040950
	299	0.596500	-17.492142	-47.551949
	300	0.598500	-17.827835	-21.162667
	301	0.600500	-18.202133	-43.708849
	302	0.602500	-18.562164	36.125133
	303	0.604500	-18.920517	12.707848
	304	0.606500	-19.280548	-125.028830
	305	0.608500	-19.637222	-48.243706
	306	0.610500	-20.003967	-190.617725
	307	0.612500	-20.356445	-159.616724
	308	0.614500	-20.728226	40.839335
	309	0.616500	-21.075668	90.671523
	310	0.618500	-21.448288	-25.851248
	311	0.620500	-21.790695	-187.825073
	312	0.622500	-22.152405	-113.909463
	313	0.624500	-22.520828	-129.128136
	314	0.626500	-22.874146	-142.937673
	315	0.628500	-23.218231	-216.135904
	316	0.630500	-23.548889	-266.224298
	317	0.632500	-23.970184	-126.361105
	318	0.634500	-24.307556	123.722177
	319	0.636500	-24.670105	-58.363868
	320	0.638500	-25.016708	-40.788094
	321	0.640500	-25.391006	40.045095
	322	0.642500	-25.744324	-53.572804
	323	0.644500	-26.112747	-54.008355
	324	0.646500	-26.465225	-88.801214
	325	0.648500	-26.828613	-210.217531
	326	0.650500	-27.190323	-74.761092
	327	0.652500	-27.551193	-121.928730
	328	0.654500	-27.907028	-213.061425
	329	0.656500	-28.261185	-63.154932
	330	0.658500	-28.635483	-121.595662
	331	0.660500	-28.981247	-152.237973
	332	0.662500	-29.350510	-239.988740
	333	0.664500	-29.708023	-324.793132
	334	0.666500	-30.065536	-97.973411
	335	0.668500	-30.406265	-17.268326
	336	0.670500	-30.780563	-39.199613
	337	0.672500	-31.140594	-196.177409
	338	0.674500	-31.498108	-281.109903
	339	0.676500	-31.860657	-386.103376
	340	0.678500	-32.213974	-390.868819
	341	0.680500	-32.583237	-471.010249
	342	0.682500	-32.939911	-342.522630
	343	0.684500	-33.294067	-347.723624
	344	0.686500	-33.653259	-460.326433
	345	0.688500	-34.019165	-423.868231
	346	0.690500	-34.369125	-487.868645
	347	0.692500	-34.732513	-662.037905
	348	0.694500	-35.097580	-667.469485
	349	0.696500	-35.449219	-849.376185
	350	0.698500	-35.813446	-858.343417
	351	0.700500	-36.170959	-1087.571479
	352	0.702500	-36.528473	-1221.413817
	353	0.704500	-36.873398	-1183.853927
	354	0.706500	-37.298889	-1325.075015
	355	0.708500	-37.585068	-1944.172691
	356	0.710500	-37.963562	-2546.796280
	357	0.712500	-38.312683	-3128.897720
	358	0.714500	-38.688660	-3126.489377
	359	0.716500	-39.034424	-3886.500693
	360	0.718500	-39.390259	-4851.938477
	361	0.720500	-39.752808	-5802.567518
	362	0.722500	-40.107803	-6496.041975
	363	0.724500	-40.469513	-7324.486079
	364	0.726500	-40.827026	-7937.383554
	365	0.728500	-41.190414	-8383.439278
	366	0.730500	-41.545410	-7971.125966
	367	0.732500	-41.902084	-6861.700062
	368	0.734500	-42.255402	-5358.945756
	369	0.736500	-42.626343	-3982.347590
	370	0.738500	-42.975464	-2691.604262
	371	0.740500	-43.337173	-1741.692599
	372	0.742500	-43.705597	-1118.393135
	373	0.744500	-44.021149	-864.953547
	374	0.746500	-44.437408	-620.096881
	375	0.748500	-44.757996	-858.881450
	376	0.750500	-45.134811	-793.728107
	377	0.752500	-45.363083	-579.129443
	378	0.754500	-45.384903	-438.395147
	379	0.756500	-45.231323	-191.078897
	380	0.758500	-45.006409	-240.091223
	381	0.760500	-44.719391	-267.633435
	382	0.762500	-44.420624	-283.902555
	383	0.764500	-44.079895	-298.326988
	384	0.766500	-43.739166	-302.503156
	385	0.768500	-43.386688	-137.839161
	386	0.770500	-43.040924	-73.966851
	387	0.772500	-42.696838	-15.295535
	388	0.774500	-42.324219	-297.788954
	389	0.776500	-41.979294	-90.569040
	390	0.778500	-41.615067	-89.416110
	391	0.780500	-41.257553	0.025621
	392	0.782500	-40.885773	-197.945234
	393	0.784500	-40.535812	-228.920614
	394	0.786500	-40.189209	-116.061599
	395	0.788500	-39.826660	131.357134
	396	0.790500	-39.475861	93.643519
	397	0.792500	-39.109116	20.496530
	398	0.794500	-38.765030	149.829631
	399	0.796500	-38.399963	-60.490383
	400	0.798500	-38.038254	-10.350747
	401	0.800500	-37.675705	72.480853
	402	0.802500	-37.334137	110.937466
	403	0.804500	-36.961517	8.582922
	404	0.806500	-36.608200	-143.834396
	405	0.808500	-36.253204	-163.767271
	406	0.810500	-35.892334	178.601634
	407	0.812500	-35.535660	139.581366
	408	0.814500	-35.168915	30.360484
	409	0.816500	-34.813080	-155.876107
	410	0.818500	-34.448853	-246.470768
	411	0.820500	-34.095535	-56.237353
	412	0.822500	-33.686829	32.538241
	413	0.824500	-33.391418	183.597664
	414	0.826500	-33.008728	63.616104
	415	0.828500	-32.657089	-12.784710
	416	0.830500	-32.283630	-112.756533
	417	0.832500	-31.938705	63.616104
	418	0.834500	-31.576996	222.720414
	419	0.836500	-31.213608	78.014916
	420	0.838500	-30.854416	-125.054451
	421	0.840500	-30.489349	-9.582128
	422	0.842500	-30.136032	31.026622
	423	0.844500	-29.776840	84.163874
	424	0.846500	-29.415970	72.762680
	425	0.848500	-29.043350	-85.086218
	426	0.850500	-28.695068	25.953731
	427	0.852500	-28.335876	104.327335
	428	0.854500	-27.981720	-105.249679
	429	0.856500	-27.610779	98.946996
	430	0.858500	-27.259140	15.705466
	431	0.860500	-26.917572	58.568833
	432	0.862500	-26.518097	17.370809
	433	0.864500	-26.189117	-74.428023
	434	0.866500	-25.816498	-129.358722
	435	0.868500	-25.470734	299.889848
	436	0.870500	-25.092239	25.671903
	437	0.872500	-24.744797	28.490176
	438	0.874500	-24.380569	-48.423051
	439	0.876500	-24.021378	-14.936846
	440	0.878500	-23.663864	61.284623
	441	0.880500	-23.296280	128.871930
	442	0.882500	-22.942123	18.139429
	443	0.884500	-22.583771	26.594247
	444	0.886500	-22.224579	-6.661372
	445	0.888500	-21.857834	-44.016297
	446	0.890500	-21.511230	81.294360
	447	0.892500	-21.143646	-41.479852
	448	0.894500	-20.786972	155.286832
	449	0.896500	-20.426102	184.827455
	450	0.898500	-20.082855	237.657260
	451	0.900500	-19.725342	80.423258
	452	0.902500	-19.348526	-61.207761
	453	0.904500	-18.989334	-147.933702
	454	0.906500	-18.625107	-23.084216
	455	0.908500	-18.277664	111.731707
	456	0.910500	-17.910080	-4.253030
	457	0.912500	-17.556763	-65.537653
	458	0.914500	-17.198410	-99.049479
	459	0.916500	-16.841736	101.637166
	460	0.918500	-16.471634	155.978590
	461	0.920500	-16.122513	212.113460
	462	0.922500	-15.757446	22.853630
	463	0.924500	-15.399094	-163.511065
	464	0.926500	-15.044937	192.616137
	465	0.928500	-14.673157	152.314835
	466	0.930500	-14.323196	-85.239942
	467	0.932500	-13.959808	-230.509096
	468	0.934500	-13.596420	-96.205586
	469	0.936500	-13.203659	79.065363
	470	0.938500	-12.893982	406.061871
	471	0.940500	-12.514648	-5.047270
	472	0.942500	-12.170563	-97.486619
	473	0.944500	-11.809692	-146.089014
	474	0.946500	-11.446304	44.093159
	475	0.948500	-11.080399	295.175646
	476	0.950500	-10.729599	293.023511
	477	0.952500	-10.365372	-14.270709
	478	0.954500	-9.998627	-201.224679
	479	0.956500	-9.650345	-78.604191
	480	0.958500	-9.291153	37.406166
	481	0.960500	-8.928604	183.059630
	482	0.962500	-8.569412	70.251855
	483	0.964500	-8.221970	21.546977
	484	0.966500	-7.847672	-86.930906
	485	0.968500	-7.491837	28.029004
	486	0.970500	-7.128448	-19.574186
	487	0.972500	-6.771774	48.961085
	488	0.974500	-6.406708	-21.649459
	489	0.976500	-5.998840	-32.948171
	490	0.978500	-5.705109	22.930492
	491	0.980500	-5.326614	70.815510
	492	0.982500	-4.976654	75.196643
	493	0.984500	-4.602356	241.730945
	494	0.986500	-4.262466	126.104898
	495	0.988500	-3.886490	22.956113
	496	0.990500	-3.532333	-18.139429
	497	0.992500	-3.179855	-63.872310
	498	0.994500	-2.813110	96.664715
	499	0.996500	-2.457275	123.050583
	500	0.998500	-2.099762	65.192650
	501	1.000500	-1.740570	141.072641

---> Task: 1	Hysteresis
---> Trace: 10
Point Number	Time (ms)		Voltage	mA/cm2
	1	0.000500	-0.989456	133.765801
	2	0.002500	-0.936584	338.510894
	3	0.004500	-0.739365	312.420483
	4	0.006500	-0.502701	423.057467
	5	0.008500	-0.203934	101.918993
	6	0.010500	0.124207	93.464175
	7	0.012500	0.454865	325.151821
	8	0.014500	0.795593	349.388967
	9	0.016500	1.153946	355.256099
	10	0.018500	1.510620	137.121783
	11	0.020500	1.868973	164.305305
	12	0.022500	2.223969	74.351161
	13	0.024500	2.581482	111.091190
	14	0.026500	2.991028	-3.663755
	15	0.028500	3.285599	255.079310
	16	0.030500	3.670807	236.376227
	17	0.032500	4.020767	34.306066
	18	0.034500	4.394226	30.104278
	19	0.036500	4.741669	-8.659784
	20	0.038500	5.106735	-136.250680
	21	0.040500	5.464249	-45.143606
	22	0.042500	5.816727	-63.641724
	23	0.044500	6.182632	14.911225
	24	0.046500	6.531754	70.764268
	25	0.048500	6.905212	-105.659610
	26	0.050500	7.261047	-408.495834
	27	0.052500	7.640381	-118.521182
	28	0.054500	7.971878	167.789715
	29	0.056500	8.340302	173.682467
	30	0.058500	8.688583	-267.787159
	31	0.060500	9.052811	-445.902001
	32	0.062500	9.418716	-238.938293
	33	0.064500	9.766159	56.083629
	34	0.066500	10.148010	31.769621
	35	0.068500	10.487900	-96.564275
	36	0.070500	10.850449	-332.581813
	37	0.072500	11.197052	-159.283655
	38	0.074500	11.578064	-117.342632
	39	0.076500	11.923828	-159.847310
	40	0.078500	12.288895	-53.572804
	41	0.080500	12.651443	89.646696
	42	0.082500	13.007278	-113.012740
	43	0.084500	13.369827	-133.816717
	44	0.086500	13.726501	-16.294741
	45	0.088500	14.084015	229.919820
	46	0.090500	14.445724	156.747210
	47	0.092500	14.808273	-43.145195
	48	0.094500	15.159073	-220.286451
	49	0.096500	15.516586	-128.846309
	50	0.098500	15.879974	333.273571
	51	0.100500	16.247559	509.415621
	52	0.102500	16.561432	163.408582
	53	0.104500	16.961746	-268.273951
	54	0.106500	17.314224	-332.914881
	55	0.108500	17.680969	-139.402022
	56	0.110500	18.041840	454.177474
	57	0.112500	18.389282	369.526807
	58	0.114500	18.759384	-17.370809
	59	0.116500	19.110184	-95.103897
	60	0.118500	19.474411	70.584924
	61	0.120500	19.826050	61.925140
	62	0.122500	20.196991	4.099306
	63	0.124500	20.551987	-101.022270
	64	0.126500	20.912857	-25.800007
	65	0.128500	21.269531	112.654051
	66	0.130500	21.631241	85.777976
	67	0.132500	21.992950	287.028276
	68	0.134500	22.347946	295.559956
	69	0.136500	22.711334	19.881634
	70	0.138500	23.073044	-116.369047
	71	0.140500	23.460770	-107.939849
	72	0.142500	23.768768	417.565548
	73	0.144500	24.160690	497.066462
	74	0.146500	24.503098	-70.456820
	75	0.148500	24.867325	-149.368459
	76	0.150500	25.222321	-21.034563
	77	0.152500	25.577316	217.186351
	78	0.154500	25.932312	486.997542
	79	0.156500	26.292343	125.054451
	80	0.158500	26.659088	-140.042538
	81	0.160500	27.002335	-133.893579
	82	0.162500	27.373276	-94.591484
	83	0.164500	27.734146	-90.364075
	84	0.166500	28.086624	268.632641
	85	0.168500	28.438263	155.978590
	86	0.170500	28.809204	52.035564
	87	0.172500	29.160843	178.396669
	88	0.174500	29.520035	158.412553
	89	0.176500	29.878387	-59.388694
	90	0.178500	30.243454	183.443940
	91	0.180500	30.624466	-244.036805
	92	0.182500	30.945053	-143.501328
	93	0.184500	31.319351	212.369667
	94	0.186500	31.666794	285.055485
	95	0.188500	32.044449	359.304163
	96	0.190500	32.391891	-5.405960
	97	0.192500	32.754440	-429.991569
	98	0.194500	33.112793	-265.532540
	99	0.196500	33.466949	429.530398
	100	0.198500	33.836212	673.413479
	101	0.200500	34.191208	520.816816
	102	0.202500	34.548721	-90.466557
	103	0.204500	34.906235	-204.299158
	104	0.206500	35.279694	53.239736
	105	0.208500	35.622940	448.899618
	106	0.210500	35.993042	286.643966
	107	0.212500	36.349716	-65.076481
	108	0.214500	36.710587	123.286625
	109	0.216500	37.066422	337.347256
	110	0.218500	37.452469	489.815815
	111	0.220500	37.784805	605.441862
	112	0.222500	38.153229	838.308059
	113	0.224500	38.504028	1260.997740
	114	0.226500	38.859024	1972.995935
	115	0.228500	39.233322	2570.444151
	116	0.230500	39.586639	3582.844608
	117	0.232500	39.944992	5006.072379
	118	0.234500	40.305023	6835.823193
	119	0.236500	40.668411	8687.095364
	120	0.238500	41.025085	10544.234666
	121	0.240500	41.386795	11725.347181
	122	0.242500	41.745148	11330.584022
	123	0.244500	42.099304	9752.428108
	124	0.246500	42.469406	7366.862654
	125	0.248500	42.821884	5291.051002
	126	0.250500	43.176041	3767.877029
	127	0.252500	43.428650	2906.843443
	128	0.254500	43.430328	2210.268886
	129	0.256500	43.218002	1602.316198
	130	0.258500	43.060226	945.530529
	131	0.260500	42.749710	776.331678
	132	0.262500	42.446747	639.952894
	133	0.264500	42.099304	656.657566
	134	0.266500	41.769485	437.472803
	135	0.268500	41.417007	180.497563
	136	0.270500	41.064529	200.584162
	137	0.272500	40.708694	402.474979
	138	0.274500	40.342789	278.342871
	139	0.276500	39.995346	108.682848
	140	0.278500	39.631119	137.224265
	141	0.280500	39.276962	3.689375
	142	0.282500	38.919449	137.377989
	143	0.284500	38.565292	136.353163
	144	0.286500	38.197708	244.421115
	145	0.288500	37.836838	82.626635
	146	0.290500	37.482681	24.775180
	147	0.292500	37.123489	-72.199025
	148	0.294500	36.801224	262.304337
	149	0.296500	36.378250	376.162559
	150	0.298500	36.057663	177.371843
	151	0.300500	35.681686	-169.634403
	152	0.302500	35.349350	-41.402990
	153	0.304500	34.958267	325.920441
	154	0.306500	34.609146	480.259308
	155	0.308500	34.243240	110.168846
	156	0.310500	33.891602	70.046890
	157	0.312500	33.521500	-63.590483
	158	0.314500	33.162308	-60.592866
	159	0.316500	32.811508	32.486999
	160	0.318500	32.450638	164.125960
	161	0.320500	32.092285	120.417111
	162	0.322500	31.726379	108.862193
	163	0.324500	31.383972	-117.701321
	164	0.326500	31.015549	27.567832
	165	0.328500	30.660553	309.343872
	166	0.330500	30.302200	160.692792
	167	0.332500	29.953918	-293.612786
	168	0.334500	29.605637	-442.289487
	169	0.336500	29.214554	-113.371429
	170	0.338500	28.868790	310.573664
	171	0.340500	28.505402	407.137939
	172	0.342500	28.153763	-154.697557
	173	0.344500	27.785339	-457.918091
	174	0.346500	27.433701	-478.337759
	175	0.348500	27.069473	-144.218706
	176	0.350500	26.721191	116.471529
	177	0.352500	26.351089	-74.274299
	178	0.354500	25.998611	-379.262659
	179	0.356500	25.632706	-328.661851
	180	0.358500	25.271835	-162.870548
	181	0.360500	24.912643	65.127723
	182	0.362500	24.549255	-14.808743
	183	0.364500	24.199295	-317.363140
	184	0.366500	23.834229	-217.032627
	185	0.368500	23.478394	-188.030038
	186	0.370500	23.121719	-118.700527
	187	0.372500	22.798615	-55.366250
	188	0.374500	22.385712	-43.427022
	189	0.376500	22.039108	31.436552
	190	0.378500	21.676559	9.197818
	191	0.380500	21.321564	-161.538274
	192	0.382500	20.963211	5.867132
	193	0.384500	20.604019	150.418906
	194	0.386500	20.241470	169.352575
	195	0.388500	19.883957	189.772243
	196	0.390500	19.523926	315.569693
	197	0.392500	19.161377	280.623110
	198	0.394500	18.806381	214.624285
	199	0.396500	18.439636	38.302890
	200	0.398500	18.082962	39.430199
	201	0.400500	17.723770	65.102102
	202	0.402500	17.364578	79.475293
	203	0.404500	17.001190	-2.357101
	204	0.406500	16.645355	64.461585
	205	0.408500	16.289520	99.100720
	206	0.410500	15.878296	-93.592278
	207	0.412500	15.584564	-307.755391
	208	0.414500	15.201035	-150.342044
	209	0.416500	14.853592	-216.315249
	210	0.418500	14.477615	-96.333689
	211	0.420500	14.135208	-196.741063
	212	0.422500	13.767624	-257.205825
	213	0.424500	13.413467	-233.404230
	214	0.426500	13.046722	-199.738681
	215	0.428500	12.695084	-353.103963
	216	0.430500	12.330017	-220.901347
	217	0.432500	11.969147	-296.456679
	218	0.434500	11.614151	-54.264562
	219	0.436500	11.251602	39.609543
	220	0.438500	10.902481	-28.515797
	221	0.440500	10.534058	55.724940
	222	0.442500	10.175705	-7.404371
	223	0.444500	9.810638	196.510477
	224	0.446500	9.449768	442.007660
	225	0.448500	9.098129	138.402816
	226	0.450500	8.724670	4.867926
	227	0.452500	8.388138	42.325334
	228	0.454500	8.020554	-159.719207
	229	0.456500	7.682343	259.895995
	230	0.458500	7.289581	249.084075
	231	0.460500	6.941299	149.727148
	232	0.462500	6.579590	-45.604778
	233	0.464500	6.218719	21.342011
	234	0.466500	5.849457	-226.589134
	235	0.468500	5.498657	-267.479711
	236	0.470500	5.142822	-610.668478
	237	0.472500	4.779434	-324.460063
	238	0.474500	4.419403	-215.111078
	239	0.476500	4.051819	115.241737
	240	0.478500	3.705215	-207.552982
	241	0.480500	3.340149	-291.025099
	242	0.482500	2.984314	-279.367698
	243	0.484500	2.622604	-120.570835
	244	0.486500	2.280197	-188.414348
	245	0.488500	1.912613	104.250473
	246	0.490500	1.539993	109.118399
	247	0.492500	1.184998	254.771862
	248	0.494500	0.814056	161.768860
	249	0.496500	0.465775	41.838541
	250	0.498500	0.100708	145.550981
	251	0.500500	-0.258484	242.909496
	252	0.502500	-0.610962	176.475119
	253	0.504500	-0.954208	88.954938
	254	0.506500	-1.328506	-127.539655
	255	0.508500	-1.681824	-238.912673
	256	0.510500	-2.050247	-37.636752
	257	0.512500	-2.402725	140.349986
	258	0.514500	-2.768631	-52.829805
	259	0.516500	-3.129501	-372.652528
	260	0.518500	-3.485336	-510.389207
	261	0.520500	-3.842010	-418.359789
	262	0.522500	-4.202042	-78.117398
	263	0.524500	-4.561234	-232.789334
	264	0.526500	-4.868393	-242.909496
	265	0.528500	-5.296402	-200.251094
	266	0.530500	-5.629578	183.802629
	267	0.532500	-5.996323	281.827281
	268	0.534500	-6.349640	200.148611
	269	0.536500	-6.719742	46.860191
	270	0.538500	-7.075577	114.114428
	271	0.540500	-7.433929	106.223264
	272	0.542500	-7.793121	304.501567
	273	0.544500	-8.153152	169.890609
	274	0.546500	-8.510666	111.987913
	275	0.548500	-8.873215	-119.443526
	276	0.550500	-9.231567	-281.186765
	277	0.552500	-9.578171	-229.663614
	278	0.554500	-9.954147	-198.406406
	279	0.556500	-10.311661	-194.230238
	280	0.558500	-10.668335	-315.928382
	281	0.560500	-11.028366	-346.955004
	282	0.562500	-11.386719	-163.536685
	283	0.564500	-11.776962	67.331100
	284	0.566500	-12.071533	22.904872
	285	0.568500	-12.465134	37.764856
	286	0.570500	-12.815094	-159.924172
	287	0.572500	-13.185196	-57.928317
	288	0.574500	-13.527603	213.778803
	289	0.576500	-13.899384	363.839020
	290	0.578500	-14.256897	79.500914
	291	0.580500	-14.611053	43.170815
	292	0.582500	-14.966888	-173.067571
	293	0.584500	-15.332794	20.855219
	294	0.586500	-15.688629	70.994854
	295	0.588500	-16.050339	-205.605812
	296	0.590500	-16.408691	-552.483954
	297	0.592500	-16.761169	-391.816783
	298	0.594500	-17.130432	-256.257861
	299	0.596500	-17.482910	-189.131726
	300	0.598500	-17.847137	85.701114
	301	0.600500	-18.194580	-20.368426
	302	0.602500	-18.588181	-125.566864
	303	0.604500	-18.936462	97.204791
	304	0.606500	-19.278030	148.446115
	305	0.608500	-19.640579	79.270328
	306	0.610500	-20.004807	353.616376
	307	0.612500	-20.373230	-8.301094
	308	0.614500	-20.721512	55.596836
	309	0.616500	-21.080704	-42.376575
	310	0.618500	-21.442413	-142.297156
	311	0.620500	-21.805801	-363.839020
	312	0.622500	-22.154083	-373.062459
	313	0.624500	-22.518311	-434.782633
	314	0.626500	-22.879181	-363.941503
	315	0.628500	-23.228302	-192.872343
	316	0.630500	-23.596725	43.708849
	317	0.632500	-23.950882	-128.257034
	318	0.634500	-24.307556	-84.778770
	319	0.636500	-24.672623	-187.312659
	320	0.638500	-25.034332	57.134076
	321	0.640500	-25.378418	197.868372
	322	0.642500	-25.751038	212.344046
	323	0.644500	-26.101837	89.851661
	324	0.646500	-26.474457	-45.246089
	325	0.648500	-26.831970	-16.781534
	326	0.650500	-27.181931	-164.715236
	327	0.652500	-27.546997	-365.888673
	328	0.654500	-27.907028	-518.177888
	329	0.656500	-28.262863	-513.463686
	330	0.658500	-28.618698	-343.957387
	331	0.660500	-28.990479	-23.596630
	332	0.662500	-29.342117	-208.321602
	333	0.664500	-29.699631	-87.571423
	334	0.666500	-30.063019	-150.188320
	335	0.668500	-30.424728	81.524946
	336	0.670500	-30.773849	140.964882
	337	0.672500	-31.138916	24.672697
	338	0.674500	-31.492233	-238.246535
	339	0.676500	-31.857300	-389.280338
	340	0.678500	-32.208939	-561.143738
	341	0.680500	-32.531204	-402.449358
	342	0.682500	-32.946625	-413.107553
	343	0.684500	-33.284836	-589.095880
	344	0.686500	-33.651581	-647.972161
	345	0.688500	-34.000702	-734.236930
	346	0.690500	-34.375000	-614.819025
	347	0.692500	-34.730835	-513.489307
	348	0.694500	-35.084152	-683.584881
	349	0.696500	-35.450897	-648.484575
	350	0.698500	-35.805893	-701.647448
	351	0.700500	-36.163406	-712.818057
	352	0.702500	-36.523438	-1026.081890
	353	0.704500	-36.887665	-1504.496511
	354	0.706500	-37.232590	-2058.517705
	355	0.708500	-37.611923	-2297.097309
	356	0.710500	-37.958527	-2714.509133
	357	0.712500	-38.321075	-3051.651424
	358	0.714500	-38.677750	-3663.985244
	359	0.716500	-39.041138	-4284.287091
	360	0.718500	-39.402847	-4938.049522
	361	0.720500	-39.736862	-5683.943853
	362	0.722500	-40.117035	-6501.166107
	363	0.724500	-40.471191	-7298.199280
	364	0.726500	-40.837936	-7801.312218
	365	0.728500	-41.186218	-7953.473330
	366	0.730500	-41.550446	-7501.319888
	367	0.732500	-41.913834	-6270.477667
	368	0.734500	-42.269669	-4687.172000
	369	0.736500	-42.621307	-3463.375461
	370	0.738500	-42.989731	-2493.325959
	371	0.740500	-43.347244	-1865.030466
	372	0.742500	-43.707275	-1368.835106
	373	0.744500	-44.072342	-810.458399
	374	0.746500	-44.416428	-804.949957
	375	0.748500	-44.785690	-585.073436
	376	0.750500	-45.136490	-609.720513
	377	0.752500	-45.386581	-172.170848
	378	0.754500	-45.378189	2.997617
	379	0.756500	-45.292587	-89.877282
	380	0.758500	-44.998856	-550.921094
	381	0.760500	-44.734497	-754.400391
	382	0.762500	-44.415588	-664.702454
	383	0.764500	-44.100037	-150.495768
	384	0.766500	-43.752594	-243.601254
	385	0.768500	-43.400116	-394.814401
	386	0.770500	-43.045959	-355.461064
	387	0.772500	-42.693481	-81.601808
	388	0.774500	-42.341843	203.171849
	389	0.776500	-41.976776	198.713854
	390	0.778500	-41.621780	27.209143
	391	0.780500	-41.263428	-63.359897
	392	0.782500	-40.910110	-84.599426
	393	0.784500	-40.542526	-109.272123
	394	0.786500	-40.186691	-183.213354
	395	0.788500	-39.825821	-155.876107
	396	0.790500	-39.469986	-403.038633
	397	0.792500	-39.110794	-308.652114
	398	0.794500	-38.717194	-102.123959
	399	0.796500	-38.411713	276.370080
	400	0.798500	-38.024826	488.867851
	401	0.800500	-37.684937	234.352195
	402	0.802500	-37.300568	3.228203
	403	0.804500	-36.966553	175.142845
	404	0.806500	-36.604843	94.975794
	405	0.808500	-36.245651	-131.152169
	406	0.810500	-35.883942	-178.524772
	407	0.812500	-35.527267	-517.998543
	408	0.814500	-35.168915	-496.682153
	409	0.816500	-34.803848	-130.972824
	410	0.818500	-34.448853	269.273157
	411	0.820500	-34.092178	489.405885
	412	0.822500	-33.741379	389.126614
	413	0.824500	-33.367920	-44.759296
	414	0.826500	-33.017120	197.150994
	415	0.828500	-32.647018	394.711918
	416	0.830500	-32.289505	-167.866577
	417	0.832500	-31.921921	-686.761843
	418	0.834500	-31.548462	-600.830143
	419	0.836500	-31.222839	-135.840750
	420	0.838500	-30.850220	304.168499
	421	0.840500	-30.493546	391.688680
	422	0.842500	-30.123444	113.089602
	423	0.844500	-29.777679	85.316804
	424	0.846500	-29.414291	311.470387
	425	0.848500	-29.055099	395.762365
	426	0.850500	-28.685837	180.856253
	427	0.852500	-28.339233	-194.921996
	428	0.854500	-27.975006	-449.821962
	429	0.856500	-27.614136	-257.231446
	430	0.858500	-27.255783	67.305479
	431	0.860500	-26.891556	138.377195
	432	0.862500	-26.545792	80.474499
	433	0.864500	-26.171494	218.749212
	434	0.866500	-25.819016	95.103897
	435	0.868500	-25.457306	159.796069
	436	0.870500	-25.100632	226.589134
	437	0.872500	-24.696960	39.225233
	438	0.874500	-24.393997	-274.192324
	439	0.876500	-24.011307	-250.544453
	440	0.878500	-23.663864	-283.876934
	441	0.880500	-23.301315	5.636546
	442	0.882500	-22.942963	93.464175
	443	0.884500	-22.581253	141.912847
	444	0.886500	-22.219543	226.640376
	445	0.888500	-21.861191	327.662646
	446	0.890500	-21.496964	335.476948
	447	0.892500	-21.141968	233.122403
	448	0.894500	-20.784454	0.333069
	449	0.896500	-20.428619	-197.099752
	450	0.898500	-20.065231	-366.247363
	451	0.900500	-19.705200	-145.858428
	452	0.902500	-19.345169	-17.422050
	453	0.904500	-18.992691	-116.369047
	454	0.906500	-18.622589	132.689408
	455	0.908500	-18.255005	223.155966
	456	0.910500	-17.953720	375.188974
	457	0.912500	-17.525711	291.409409
	458	0.914500	-17.199249	5.790270
	459	0.916500	-16.835022	-254.899966
	460	0.918500	-16.487579	-285.157967
	461	0.920500	-16.112442	-141.733502
	462	0.922500	-15.761642	-61.566451
	463	0.924500	-15.394058	-70.226234
	464	0.926500	-15.038223	144.756740
	465	0.928500	-14.682388	23.263561
	466	0.930500	-14.319000	326.919646
	467	0.932500	-13.960648	274.909703
	468	0.934500	-13.598099	-30.565450
	469	0.936500	-13.235550	-187.850693
	470	0.938500	-12.868805	-145.243533
	471	0.940500	-12.522202	28.310831
	472	0.942500	-12.157135	291.870581
	473	0.944500	-11.797943	194.973237
	474	0.946500	-11.455536	60.054832
	475	0.948500	-11.086273	-2.536446
	476	0.950500	-10.741348	290.820134
	477	0.952500	-10.361176	239.348224
	478	0.954500	-10.002823	-188.798658
	479	0.956500	-9.631882	-340.780425
	480	0.958500	-9.299545	-288.258068
	481	0.960500	-8.922729	-60.746589
	482	0.962500	-8.566895	148.881667
	483	0.964500	-8.209381	288.821722
	484	0.966500	-7.852707	38.789682
	485	0.968500	-7.488480	152.263594
	486	0.970500	-7.125092	50.780152
	487	0.972500	-6.765900	-51.804978
	488	0.974500	-6.410904	-83.882047
	489	0.976500	-6.059265	-139.376401
	490	0.978500	-5.679932	-250.339488
	491	0.980500	-5.328293	122.620488
	492	0.982500	-4.971619	205.913260
	493	0.984500	-4.609070	343.393732
	494	0.986500	-4.233932	146.678290
	495	0.988500	-3.889008	113.320188
	496	0.990500	-3.527298	84.291978
	497	0.992500	-3.173141	54.085217
	498	0.994500	-2.824860	-33.584418
	499	0.996500	-2.448883	-124.011732
	500	0.998500	-2.091370	-277.250340
	501	1.000500	-1.736374	-257.150103

---> Task: 1	Hysteresis
---> Trace: 11
Point Number	Time (ms)		Voltage	mA/cm2
	1	0.000500	-0.984421	-47.060386
	2	0.002500	-0.927353	-113.730243
	3	0.004500	-0.760345	-319.875252
	4	0.006500	-0.494308	-314.392628
	5	0.008500	-0.203934	-140.964882
	6	0.010500	0.122528	207.194293
	7	0.012500	0.454025	395.787986
	8	0.014500	0.798950	370.321048
	9	0.016500	1.154785	171.786538
	10	0.018500	1.511459	187.773831
	11	0.020500	1.868134	129.768653
	12	0.022500	2.219772	-74.428023
	13	0.024500	2.633514	-314.544867
	14	0.026500	2.933960	-342.650733
	15	0.028500	3.308258	-367.554016
	16	0.030500	3.656540	-109.989502
	17	0.032500	4.032516	93.617899
	18	0.034500	4.382477	267.556573
	19	0.036500	4.743347	380.671795
	20	0.038500	5.101700	315.954003
	21	0.040500	5.464249	164.330926
	22	0.042500	5.818405	179.831426
	23	0.044500	6.182632	3.612513
	24	0.046500	6.545181	-213.112666
	25	0.048500	6.904373	-186.441557
	26	0.050500	7.271957	-201.429644
	27	0.052500	7.617722	-145.038567
	28	0.054500	7.979431	40.147577
	29	0.056500	8.336105	58.210144
	30	0.058500	8.700333	480.028722
	31	0.060500	9.057846	524.429329
	32	0.062500	9.382629	232.635610
	33	0.064500	9.798050	-63.923552
	34	0.066500	10.131226	-197.970855
	35	0.068500	10.492935	-76.144607
	36	0.070500	10.838699	128.846309
	37	0.072500	11.217194	-149.932114
	38	0.074500	11.569672	-278.829664
	39	0.076500	11.933899	-246.752595
	40	0.078500	12.290573	177.756153
	41	0.080500	12.653961	417.206859
	42	0.082500	13.012314	209.525773
	43	0.084500	13.371506	-4.355513
	44	0.086500	13.729019	-210.294393
	45	0.088500	14.086533	82.524152
	46	0.090500	14.450760	92.413728
	47	0.092500	14.802399	-69.688200
	48	0.094500	15.164108	-365.248157
	49	0.096500	15.521622	-96.051862
	50	0.098500	15.887527	363.787779
	51	0.100500	16.219864	688.350325
	52	0.102500	16.599197	257.128963
	53	0.104500	16.963425	-99.075100
	54	0.106500	17.319260	-371.576460
	55	0.108500	17.690201	-147.549392
	56	0.110500	18.024216	-11.426815
	57	0.112500	18.402710	-180.292598
	58	0.114500	18.750992	-183.136492
	59	0.116500	19.116898	175.142845
	60	0.118500	19.465179	344.879730
	61	0.120500	19.836960	449.283928
	62	0.122500	20.193634	372.755011
	63	0.124500	20.552826	-143.936879
	64	0.126500	20.912857	-262.022510
	65	0.128500	21.267853	-154.005799
	66	0.130500	21.629562	-220.107107
	67	0.132500	21.988754	-69.790683
	68	0.134500	22.353821	-152.494180
	69	0.136500	22.702942	62.719380
	70	0.138500	23.090668	342.138320
	71	0.140500	23.420486	589.044639
	72	0.142500	23.789749	313.186972
	73	0.144500	24.132156	77.220675
	74	0.146500	24.504776	-153.006593
	75	0.148500	24.858932	-269.247536
	76	0.150500	25.213928	-308.498391
	77	0.152500	25.578995	-50.344601
	78	0.154500	25.931473	2.946376
	79	0.156500	26.297379	346.007040
	80	0.158500	26.643143	271.425293
	81	0.160500	27.010727	164.510270
	82	0.162500	27.368240	161.256446
	83	0.164500	27.727432	87.904491
	84	0.166500	28.071518	46.783329
	85	0.168500	28.442459	-144.423671
	86	0.170500	28.796616	-206.041363
	87	0.172500	29.160843	-32.230793
	88	0.174500	29.513321	134.149786
	89	0.176500	29.884262	269.119433
	90	0.178500	30.282059	207.527362
	91	0.180500	30.576630	110.911846
	92	0.182500	30.954285	50.959497
	93	0.184500	31.307602	-147.728737
	94	0.186500	31.676865	-62.027623
	95	0.188500	32.023468	-144.807981
	96	0.190500	32.392731	111.168052
	97	0.192500	32.749405	432.066843
	98	0.194500	33.105240	384.489274
	99	0.196500	33.464432	393.072196
	100	0.198500	33.826981	154.902522
	101	0.200500	34.187012	-37.252442
	102	0.202500	34.548721	109.323365
	103	0.204500	34.922180	-70.328717
	104	0.206500	35.259552	-105.736472
	105	0.208500	35.631332	45.732882
	106	0.210500	35.983810	183.700146
	107	0.212500	36.348038	611.232132
	108	0.214500	36.697159	695.959661
	109	0.216500	37.077332	536.880971
	110	0.218500	37.435684	454.613026
	111	0.220500	37.784805	240.219326
	112	0.222500	38.148193	467.397736
	113	0.224500	38.496475	955.035795
	114	0.226500	38.869934	1531.936240
	115	0.228500	39.224091	2096.180078
	116	0.230500	39.589157	3207.604393
	117	0.232500	39.950027	4765.904294
	118	0.234500	40.306702	6608.824129
	119	0.236500	40.665054	8163.562758
	120	0.238500	41.023407	9608.106919
	121	0.240500	41.388474	10631.857330
	122	0.242500	41.739273	11024.878284
	123	0.244500	42.114410	10169.814312
	124	0.246500	42.462692	8136.584201
	125	0.248500	42.821884	5706.182588
	126	0.250500	43.176041	4292.280737
	127	0.252500	43.441238	3490.302777
	128	0.254500	43.379135	2637.544665
	129	0.256500	43.275070	1928.313501
	130	0.258500	43.041763	1120.673374
	131	0.260500	42.761459	752.068911
	132	0.262500	42.434158	1022.930549
	133	0.264500	42.109375	1114.216967
	134	0.266500	41.769485	861.648482
	135	0.268500	41.425400	673.054789
	136	0.270500	41.063690	362.429884
	137	0.272500	40.702820	120.340249
	138	0.274500	40.352859	23.904078
	139	0.276500	39.991150	-20.803978
	140	0.278500	39.639511	-91.901314
	141	0.280500	39.275284	106.095161
	142	0.282500	38.923645	412.697623
	143	0.284500	38.562775	484.922269
	144	0.286500	38.196030	255.822310
	145	0.288500	37.838516	99.331306
	146	0.290500	37.475967	-82.626635
	147	0.292500	37.160416	-97.358515
	148	0.294500	36.744156	64.717792
	149	0.296500	36.414337	119.904698
	150	0.298500	36.039200	44.784917
	151	0.300500	35.709381	134.482855
	152	0.302500	35.320816	166.636785
	153	0.304500	34.963303	84.163874
	154	0.306500	34.599075	-94.565863
	155	0.308500	34.249115	-298.147643
	156	0.310500	33.887405	-302.195708
	157	0.312500	33.528214	91.978176
	158	0.314500	33.170700	288.770481
	159	0.316500	32.808151	184.110077
	160	0.318500	32.450638	132.176995
	161	0.320500	32.083054	-42.914609
	162	0.322500	31.741486	-171.863400
	163	0.324500	31.374741	-231.918232
	164	0.326500	31.010513	-62.463174
	165	0.328500	30.661392	-122.261799
	166	0.330500	30.307236	-16.781534
	167	0.332500	29.968185	-46.860191
	168	0.334500	29.569550	169.250093
	169	0.336500	29.226303	44.759296
	170	0.338500	28.858719	-91.055833
	171	0.340500	28.512955	-275.242771
	172	0.342500	28.136978	-83.190289
	173	0.344500	27.790375	243.806219
	174	0.346500	27.424469	322.974065
	175	0.348500	27.073669	37.790476
	176	0.350500	26.707764	-23.109837
	177	0.352500	26.356964	-237.221709
	178	0.354500	25.990219	-216.571455
	179	0.356500	25.631027	-149.880872
	180	0.358500	25.281067	-128.692585
	181	0.360500	24.903412	52.343012
	182	0.362500	24.555130	180.241357
	183	0.364500	24.193420	141.605399
	184	0.366500	23.835068	134.149786
	185	0.368500	23.473358	-145.141050
	186	0.370500	23.144379	-226.947824
	187	0.372500	22.745743	-239.425086
	188	0.374500	22.402496	-75.427229
	189	0.376500	22.037430	7.942405
	190	0.378500	21.680756	120.827042
	191	0.380500	21.321564	32.230793
	192	0.382500	20.963211	-113.012740
	193	0.384500	20.603180	-108.529124
	194	0.386500	20.243988	-207.066190
	195	0.388500	19.885635	-55.135665
	196	0.390500	19.518051	95.539448
	197	0.392500	19.163055	90.466557
	198	0.394500	18.797989	210.243152
	199	0.396500	18.439636	191.540069
	200	0.398500	18.084641	-133.765476
	201	0.400500	17.722931	-56.775387
	202	0.402500	17.367935	-530.373323
	203	0.404500	17.003708	-379.851934
	204	0.406500	16.652069	164.330926
	205	0.408500	16.229935	412.159589
	206	0.410500	15.947113	336.194326
	207	0.412500	15.563583	-18.856807
	208	0.414500	15.214462	-501.755044
	209	0.416500	14.838486	-41.326128
	210	0.418500	14.490204	-29.899312
	211	0.420500	14.133530	107.478677
	212	0.422500	13.775177	78.732294
	213	0.424500	13.415146	-17.370809
	214	0.426500	13.049240	46.860191
	215	0.428500	12.695923	-165.406994
	216	0.430500	12.329178	-376.213800
	217	0.432500	11.972504	-299.095608
	218	0.434500	11.609955	-130.460411
	219	0.436500	11.258316	195.664995
	220	0.438500	10.891571	353.846962
	221	0.440500	10.535736	155.286832
	222	0.442500	10.172348	-109.144020
	223	0.444500	9.806442	-330.634642
	224	0.446500	9.474106	-101.816511
	225	0.448500	9.077148	14.296329
	226	0.450500	8.745651	25.620662
	227	0.452500	8.379745	-170.300540
	228	0.454500	8.039017	-108.759710
	229	0.456500	7.649612	-82.985324
	230	0.458500	7.300491	-137.839161
	231	0.460500	6.937943	-212.472150
	232	0.462500	6.576233	-157.464588
	233	0.464500	6.212006	183.956353
	234	0.466500	5.855331	424.867437
	235	0.468500	5.496979	499.731011
	236	0.470500	5.135269	-176.961912
	237	0.472500	4.779434	-620.634915
	238	0.474500	4.411850	-652.635122
	239	0.476500	4.067764	-1.229792
	240	0.478500	3.700180	426.071608
	241	0.480500	3.339310	253.721415
	242	0.482500	2.985992	-356.870200
	243	0.484500	2.635193	-230.842164
	244	0.486500	2.265091	-119.853457
	245	0.488500	1.906738	163.152375
	246	0.490500	1.536636	58.645695
	247	0.492500	1.177444	35.894547
	248	0.494500	0.826645	110.860604
	249	0.496500	0.463257	51.061979
	250	0.498500	0.107422	-125.771829
	251	0.500500	-0.255966	-263.406025
	252	0.502500	-0.600891	-298.378229
	253	0.504500	-0.975189	-251.671762
	254	0.506500	-1.325989	120.852662
	255	0.508500	-1.687698	508.672622
	256	0.510500	-2.046890	273.808014
	257	0.512500	-2.406921	-360.072783
	258	0.514500	-2.771149	-349.645174
	259	0.516500	-3.123627	-14.270709
	260	0.518500	-3.481979	266.890436
	261	0.520500	-3.843689	119.161699
	262	0.522500	-4.199524	-414.260483
	263	0.524500	-4.509201	-456.150265
	264	0.526500	-4.941406	107.991090
	265	0.528500	-5.273743	56.749766
	266	0.530500	-5.643845	-223.335310
	267	0.532500	-5.987930	-109.758916
	268	0.534500	-6.355515	49.704084
	269	0.536500	-6.715546	212.830839
	270	0.538500	-7.083130	193.282274
	271	0.540500	-7.438965	-263.790335
	272	0.542500	-7.786407	-381.850346
	273	0.544500	-8.153152	-53.188494
	274	0.546500	-8.508987	28.362073
	275	0.548500	-8.873215	300.684089
	276	0.550500	-9.222336	286.362139
	277	0.552500	-9.593277	-143.117018
	278	0.554500	-9.948273	-496.963980
	279	0.556500	-10.315018	-421.818578
	280	0.558500	-10.668335	-87.955732
	281	0.560500	-11.024170	348.927795
	282	0.562500	-11.413574	189.567278
	283	0.564500	-11.727448	-39.788888
	284	0.566500	-12.114334	-210.396876
	285	0.568500	-12.459259	-65.178964
	286	0.570500	-12.839432	-14.398812
	287	0.572500	-13.175964	-166.329337
	288	0.574500	-13.543549	-41.838541
	289	0.576500	-13.901062	54.546389
	290	0.578500	-14.261932	-127.847103
	291	0.580500	-14.618607	-153.595868
	292	0.582500	-14.974442	-252.568485
	293	0.584500	-15.336151	-157.592692
	294	0.586500	-15.700378	229.407407
	295	0.588500	-16.053696	77.041330
	296	0.590500	-16.406174	-221.311278
	297	0.592500	-16.778793	-206.220708
	298	0.594500	-17.127075	-284.901761
	299	0.596500	-17.488785	168.507094
	300	0.598500	-17.846298	287.105138
	301	0.600500	-18.225632	66.921169
	302	0.602500	-18.575592	-93.541037
	303	0.604500	-18.923874	-53.598425
	304	0.606500	-19.281387	-340.370494
	305	0.608500	-19.630508	-232.609990
	306	0.610500	-20.018234	-146.780772
	307	0.612500	-20.365677	141.682261
	308	0.614500	-20.727386	233.993506
	309	0.616500	-21.080704	-88.083836
	310	0.618500	-21.448288	-377.238627
	311	0.620500	-21.794052	-201.890816
	312	0.622500	-22.159958	181.317425
	313	0.624500	-22.518311	62.411933
	314	0.626500	-22.879181	-311.957180
	315	0.628500	-23.245926	-474.545901
	316	0.630500	-23.588333	-221.336899
	317	0.632500	-23.955078	2.382722
	318	0.634500	-24.310913	77.323158
	319	0.636500	-24.669266	-155.824866
	320	0.638500	-25.015869	-143.860017
	321	0.640500	-25.391846	-100.817305
	322	0.642500	-25.743484	53.060391
	323	0.644500	-26.111908	-181.445528
	324	0.646500	-26.466064	-32.358896
	325	0.648500	-26.821899	56.391077
	326	0.650500	-27.182770	-64.589689
	327	0.652500	-27.544479	-154.005799
	328	0.654500	-27.902832	-280.187559
	329	0.656500	-28.251114	-346.288867
	330	0.658500	-28.621216	33.153137
	331	0.660500	-28.979568	-25.671903
	332	0.662500	-29.340439	-192.667378
	333	0.664500	-29.698792	-267.300366
	334	0.666500	-30.068893	-329.532954
	335	0.668500	-30.420532	-331.992538
	336	0.670500	-30.778885	-81.319981
	337	0.672500	-31.135559	-84.650667
	338	0.674500	-31.499786	-319.617758
	339	0.676500	-31.849747	-405.190769
	340	0.678500	-32.173691	-472.983040
	341	0.680500	-32.580719	-487.843024
	342	0.682500	-32.924805	-203.504918
	343	0.684500	-33.297424	-369.475566
	344	0.686500	-33.640671	-495.477981
	345	0.688500	-34.015808	-392.636644
	346	0.690500	-34.367447	-583.997368
	347	0.692500	-34.734192	-686.377534
	348	0.694500	-35.092545	-678.921921
	349	0.696500	-35.449219	-965.002232
	350	0.698500	-35.811768	-1068.791534
	351	0.700500	-36.170959	-1184.186995
	352	0.702500	-36.530151	-1343.163203
	353	0.704500	-36.870880	-1555.225422
	354	0.706500	-37.251892	-1992.416397
	355	0.708500	-37.609406	-2381.312425
	356	0.710500	-37.969437	-2577.079903
	357	0.712500	-38.326950	-2865.594177
	358	0.714500	-38.687820	-3497.425321
	359	0.716500	-39.056244	-4597.832752
	360	0.718500	-39.388580	-5322.052003
	361	0.720500	-39.762878	-5915.529016
	362	0.722500	-40.115356	-6533.063831
	363	0.724500	-40.487976	-7440.342712
	364	0.726500	-40.829544	-7970.664794
	365	0.728500	-41.197968	-7852.041129
	366	0.730500	-41.553802	-6823.320310
	367	0.732500	-41.918030	-5329.558857
	368	0.734500	-42.266312	-3877.226014
	369	0.736500	-42.636414	-2830.365767
	370	0.738500	-42.990570	-1929.287086
	371	0.740500	-43.348083	-1590.889383
	372	0.742500	-43.709793	-1052.419931
	373	0.744500	-44.060593	-891.983346
	374	0.746500	-44.431534	-915.093183
	375	0.748500	-44.785690	-987.702139
	376	0.750500	-45.144882	-467.602701
	377	0.752500	-45.379028	-305.936324
	378	0.754500	-45.431061	-315.518452
	379	0.756500	-45.232162	-664.984281
	380	0.758500	-45.013123	-569.624177
	381	0.760500	-44.722748	-452.640235
	382	0.762500	-44.421463	-170.172437
	383	0.764500	-44.095840	-252.209796
	384	0.766500	-43.747559	-66.152549
	385	0.768500	-43.401794	25.287593
	386	0.770500	-43.044281	-150.854458
	387	0.772500	-42.697678	-390.433267
	388	0.774500	-42.326736	-320.616964
	389	0.776500	-41.979294	-68.509650
	390	0.778500	-41.617584	-106.991884
	391	0.780500	-41.259232	-155.696763
	392	0.782500	-40.900040	-176.603223
	393	0.784500	-40.541687	-91.107074
	394	0.786500	-40.186691	11.785504
	395	0.788500	-39.825821	-37.098718
	396	0.790500	-39.464111	-31.205966
	397	0.792500	-39.080582	35.458996
	398	0.794500	-38.765030	140.016918
	399	0.796500	-38.384018	-17.012120
	400	0.798500	-38.039932	-19.113014
	401	0.800500	-37.659760	-159.539862
	402	0.802500	-37.319031	26.030593
	403	0.804500	-36.960678	-27.081040
	404	0.806500	-36.604004	68.996443
	405	0.808500	-36.237259	-95.257621
	406	0.810500	-35.878906	83.958909
	407	0.812500	-35.526428	156.516624
	408	0.814500	-35.163879	251.979210
	409	0.816500	-34.806366	-240.296188
	410	0.818500	-34.449692	-246.393906
	411	0.820500	-34.097214	-19.548565
	412	0.822500	-33.722076	192.180585
	413	0.824500	-33.369598	303.809809
	414	0.826500	-33.007050	-89.595455
	415	0.828500	-32.655411	-415.182827
	416	0.830500	-32.281113	-134.713441
	417	0.832500	-31.895065	161.794480
	418	0.834500	-31.582031	110.655639
	419	0.836500	-31.211090	76.810745
	420	0.838500	-30.846863	-135.558922
	421	0.840500	-30.490189	222.566690
	422	0.842500	-30.138550	455.227921
	423	0.844500	-29.769287	425.302988
	424	0.846500	-29.416809	-62.155726
	425	0.848500	-29.061813	-295.713680
	426	0.850500	-28.694229	-354.461858
	427	0.852500	-28.339233	-92.183142
	428	0.854500	-27.978363	-15.423638
	429	0.856500	-27.618332	-31.615897
	430	0.858500	-27.248230	99.689996
	431	0.860500	-26.908340	128.795068
	432	0.862500	-26.537399	23.391664
	433	0.864500	-26.179886	13.732675
	434	0.866500	-25.822372	144.346809
	435	0.868500	-25.464859	326.227889
	436	0.870500	-25.098114	307.550426
	437	0.872500	-24.738083	22.341217
	438	0.874500	-24.388962	-109.810157
	439	0.876500	-24.020538	16.653430
	440	0.878500	-23.676453	232.712472
	441	0.880500	-23.298798	51.856220
	442	0.882500	-22.947159	-224.103930
	443	0.884500	-22.590485	-127.923965
	444	0.886500	-22.227936	131.408375
	445	0.888500	-21.856995	392.252334
	446	0.890500	-21.507874	222.951000
	447	0.892500	-21.147003	-239.527569
	448	0.894500	-20.790329	-288.411792
	449	0.896500	-20.436172	-25.108249
	450	0.898500	-20.068588	71.302302
	451	0.900500	-19.706879	17.831981
	452	0.902500	-19.348526	-457.866850
	453	0.904500	-18.989334	-364.018365
	454	0.906500	-18.615036	155.748004
	455	0.908500	-18.324661	499.782253
	456	0.910500	-17.893295	426.020367
	457	0.912500	-17.555084	88.801214
	458	0.914500	-17.193375	-263.482887
	459	0.916500	-16.845093	107.939849
	460	0.918500	-16.476669	214.419320
	461	0.920500	-16.118317	266.659850
	462	0.922500	-15.752411	26.722350
	463	0.924500	-15.394897	-223.591517
	464	0.926500	-15.039902	-213.240769
	465	0.928500	-14.666443	-126.130519
	466	0.930500	-14.319000	55.827422
	467	0.932500	-13.953094	86.623458
	468	0.934500	-13.590546	-107.094367
	469	0.936500	-13.228836	-264.328369
	470	0.938500	-12.878036	151.008182
	471	0.940500	-12.515488	388.511718
	472	0.942500	-12.162170	253.900760
	473	0.944500	-11.808853	149.265977
	474	0.946500	-11.400146	61.592071
	475	0.948500	-11.102219	97.230412
	476	0.950500	-10.712814	196.074926
	477	0.952500	-10.370407	-122.441143
	478	0.954500	-9.984360	-248.136111
	479	0.956500	-9.654541	-131.280272
	480	0.958500	-9.280243	-185.416731
	481	0.960500	-8.926086	-57.287800
	482	0.962500	-8.563538	26.978557
	483	0.964500	-8.209381	165.304511
	484	0.966500	-7.846832	6.635751
	485	0.968500	-7.487640	298.429470
	486	0.970500	-7.123413	-11.119367
	487	0.972500	-6.766739	-22.341217
	488	0.974500	-6.415939	145.371636
	489	0.976500	-6.045837	281.622316
	490	0.978500	-5.690842	153.493386
	491	0.980500	-5.332489	-3.458789
	492	0.982500	-4.971619	-456.355231
	493	0.984500	-4.595642	27.029798
	494	0.986500	-4.233932	-32.922551
	495	0.988500	-3.892365	-72.199025
	496	0.990500	-3.528976	-148.471736
	497	0.992500	-3.173981	-34.562273
	498	0.994500	-2.803879	99.186865
	499	0.996500	-2.460632	110.813508
	500	0.998500	-2.089691	-4.483090
	501	1.000500	-1.733017	105.587446



Hysteresis Filter Version: 5.30.0 - Radiant Technologies, Inc., 2001 - 5/06/21

